* Measurement data measured by REW V5.20.5
* Source: ¸¶ÀÌÅ©(THX Onyx USB Amplifie, MICROPHONE (¸¶½º), L, volume: 0.250
* Format: 128k Log Swept Sine, 4 sweeps at -28.0 dBFS with no timing reference
* Dated: 2022. 4. 18 ¿ÀÈÄ 7:52:22
* REW Settings:
*  C-weighting compensation: Off
*  Target level: 75.0 dB
* Note: ; 
* Measurement: Sange1+4_Unknowntips_L
* Smoothing: 1/24 octave
* Frequency Step: 1/48 octave
* Start Frequency: 20.300 Hz
*
* Freq(Hz)	SPL(dB)	Phase(degrees)
20.299999	87.122	168.2462
20.600000	87.117	168.2146
20.900000	87.104	168.1552
21.200001	87.086	168.0883
21.400000	87.072	168.0335
21.799999	87.037	167.8918
22.000000	87.017	167.8041
22.400000	86.974	167.6013
22.700001	86.946	167.4296
23.000000	86.927	167.2400
23.299999	86.912	167.0281
23.600000	86.899	166.7921
24.000000	86.884	166.4448
24.299999	86.877	166.1717
24.700001	86.869	165.8108
25.000000	86.865	165.5543
25.400000	86.864	165.2359
25.799999	86.871	164.9373
26.200001	86.884	164.6491
26.500000	86.893	164.4396
26.900000	86.902	164.1764
27.200001	86.904	163.9967
27.600000	86.901	163.7824
28.000000	86.892	163.5896
28.500000	86.870	163.3654
29.000000	86.838	163.1604
29.500000	86.804	162.9858
30.000000	86.770	162.8278
30.400000	86.745	162.6809
30.700001	86.730	162.5426
31.100000	86.713	162.3164
31.500000	86.696	162.0581
32.000000	86.668	161.7320
32.500000	86.644	161.4326
33.000000	86.629	161.1509
33.500000	86.619	160.8610
34.000000	86.610	160.5559
34.500000	86.601	160.2511
35.000000	86.594	159.9611
35.500000	86.589	159.6884
36.000000	86.583	159.4302
36.500000	86.573	159.1866
37.000000	86.558	158.9587
37.500000	86.538	158.7458
38.200001	86.508	158.4702
38.700001	86.493	158.2840
39.500000	86.464	157.9704
40.000000	86.439	157.7489
40.599998	86.402	157.4634
41.200001	86.357	157.1717
41.799999	86.312	156.8725
42.500000	86.266	156.5115
43.099998	86.238	156.2173
43.700001	86.221	155.9577
44.400002	86.215	155.6768
45.000000	86.213	155.4230
45.500000	86.208	155.2020
46.200001	86.194	154.9023
46.799999	86.176	154.6657
47.500000	86.155	154.3998
48.200001	86.135	154.1281
48.700001	86.117	153.9292
49.400002	86.080	153.6461
50.000000	86.040	153.3975
50.799999	85.981	153.0562
51.500000	85.930	152.7536
52.200001	85.885	152.4536
53.000000	85.850	152.1201
53.799999	85.829	151.8022
54.500000	85.814	151.5353
55.200001	85.801	151.2741
56.000000	85.784	150.9822
57.000000	85.753	150.6304
58.000000	85.705	150.2878
59.000000	85.641	149.9484
60.000000	85.580	149.5975
60.799999	85.536	149.3003
61.500000	85.502	149.0387
62.200001	85.470	148.7864
63.000000	85.438	148.5080
64.000000	85.406	148.1639
65.000000	85.384	147.8205
66.000000	85.365	147.4810
67.000000	85.340	147.1517
68.000000	85.305	146.8270
69.000000	85.253	146.5032
70.000000	85.190	146.1858
71.000000	85.129	145.8720
72.000000	85.074	145.5600
73.000000	85.027	145.2515
74.000000	84.989	144.9464
75.000000	84.961	144.6457
76.199997	84.931	144.2944
77.500000	84.892	143.9192
78.800003	84.839	143.5410
80.000000	84.776	143.1983
81.199997	84.704	142.8624
82.500000	84.630	142.5030
83.800003	84.579	142.1492
85.000000	84.546	141.8272
86.199997	84.513	141.5108
87.500000	84.466	141.1713
88.500000	84.422	140.9132
90.000000	84.343	140.5316
91.199997	84.276	140.2321
92.500000	84.209	139.9141
93.800003	84.154	139.6002
95.000000	84.114	139.3154
96.199997	84.077	139.0340
97.500000	84.031	138.7331
98.800003	83.971	138.4409
100.000000	83.904	138.1802
101.500000	83.816	137.8641
103.000000	83.736	137.5628
104.400002	83.674	137.2964
106.000000	83.608	137.0179
107.500000	83.539	136.7937
109.000000	83.455	136.6158
110.599998	83.353	136.4979
112.000000	83.264	136.4725
113.800003	83.176	136.5639
115.000000	83.142	136.7008
117.199997	83.128	137.0031
118.000000	83.134	137.0778
120.599998	83.163	136.9587
122.000000	83.174	136.6471
124.099998	83.179	135.9860
125.000000	83.175	135.6754
126.500000	83.158	135.1667
128.000000	83.124	134.6964
131.500000	82.987	133.7786
132.000000	82.967	133.6653
134.000000	82.898	133.2467
136.000000	82.848	132.8700
138.000000	82.797	132.5246
140.000000	82.730	132.1967
143.000000	82.632	131.6944
145.000000	82.585	131.3396
147.500000	82.529	130.8770
150.000000	82.451	130.4086
152.500000	82.362	129.9453
155.000000	82.294	129.4965
157.500000	82.234	129.0694
160.000000	82.159	128.6685
162.500000	82.080	128.2866
165.000000	82.013	127.9174
167.500000	81.956	127.5674
170.000000	81.886	127.2372
172.500000	81.805	126.9210
175.000000	81.732	126.6159
177.500000	81.665	126.3194
180.000000	81.582	126.0291
182.500000	81.482	125.7472
185.000000	81.377	125.4735
187.500000	81.275	125.2050
190.000000	81.179	124.9424
192.500000	81.097	124.6888
195.000000	81.037	124.4448
197.500000	80.989	124.2064
200.000000	80.934	123.9716
203.000000	80.862	123.6963
206.000000	80.795	123.4292
209.000000	80.727	123.1694
212.000000	80.652	122.9151
214.000000	80.604	122.7493
218.000000	80.513	122.4294
220.000000	80.462	122.2756
224.000000	80.356	121.9828
227.000000	80.284	121.7798
230.000000	80.209	121.5897
233.000000	80.131	121.4130
236.000000	80.057	121.2543
240.000000	79.961	121.0763
243.000000	79.889	120.9760
247.000000	79.805	120.9002
250.000000	79.740	120.8969
254.000000	79.652	120.9709
258.000000	79.585	121.1138
262.000000	79.549	121.2442
265.000000	79.544	121.2552
269.000000	79.548	121.0874
272.000000	79.545	120.8304
276.000000	79.521	120.3804
280.000000	79.479	119.9006
285.000000	79.413	119.3532
290.000000	79.338	118.8894
295.000000	79.255	118.4981
300.000000	79.169	118.1621
304.000000	79.098	117.9201
307.000000	79.048	117.7502
311.000000	78.984	117.5367
315.000000	78.924	117.3385
320.000000	78.856	117.1098
325.000000	78.790	116.8918
330.000000	78.723	116.6811
335.000000	78.656	116.4834
340.000000	78.595	116.2970
345.000000	78.542	116.1208
350.000000	78.488	115.9572
355.000000	78.430	115.7993
360.000000	78.373	115.6438
365.000000	78.319	115.4976
370.000000	78.266	115.3607
375.000000	78.216	115.2331
382.000000	78.150	115.0544
387.000000	78.106	114.9282
395.000000	78.043	114.7371
400.000000	78.007	114.6238
406.000000	77.964	114.4872
412.000000	77.919	114.3522
418.000000	77.876	114.2213
425.000000	77.834	114.0716
431.000000	77.800	113.9489
437.000000	77.766	113.8315
444.000000	77.726	113.6974
450.000000	77.696	113.5861
455.000000	77.676	113.4997
462.000000	77.653	113.3888
468.000000	77.634	113.2989
475.000000	77.616	113.1943
482.000000	77.599	113.0975
487.000000	77.587	113.0325
494.000000	77.570	112.9361
500.000000	77.559	112.8481
508.000000	77.550	112.7322
515.000000	77.542	112.6320
522.000000	77.537	112.5301
530.000000	77.540	112.4094
538.000000	77.547	112.2878
545.000000	77.549	112.1805
552.000000	77.548	112.0735
560.000000	77.551	111.9523
570.000000	77.572	111.7932
580.000000	77.597	111.6342
590.000000	77.616	111.4783
600.000000	77.634	111.3148
608.000000	77.657	111.1818
615.000000	77.684	111.0623
622.000000	77.715	110.9378
630.000000	77.750	110.7883
640.000000	77.796	110.5903
650.000000	77.846	110.3777
660.000000	77.898	110.1493
670.000000	77.953	109.9082
680.000000	78.012	109.6455
690.000000	78.069	109.3635
700.000000	78.128	109.0641
710.000000	78.192	108.7452
720.000000	78.259	108.4047
730.000000	78.331	108.0484
740.000000	78.405	107.6805
750.000000	78.478	107.2935
762.000000	78.565	106.8025
775.000000	78.661	106.2430
788.000000	78.760	105.6559
800.000000	78.851	105.0814
812.000000	78.938	104.4759
825.000000	79.028	103.7890
838.000000	79.118	103.0690
850.000000	79.194	102.3745
862.000000	79.262	101.6559
875.000000	79.334	100.8490
885.000000	79.388	100.2105
900.000000	79.462	99.2445
912.000000	79.513	98.4787
925.000000	79.562	97.6549
938.000000	79.605	96.8484
950.000000	79.636	96.1357
962.000000	79.659	95.4636
975.000000	79.680	94.7880
988.000000	79.697	94.1747
1000.000000	79.713	93.6714
1015.000000	79.735	93.1336
1030.000000	79.759	92.6920
1044.000000	79.785	92.3589
1060.000000	79.822	92.0579
1075.000000	79.870	91.8284
1090.000000	79.938	91.6168
1106.000000	80.031	91.3790
1120.000000	80.127	91.1375
1138.000000	80.266	90.7410
1150.000000	80.364	90.4086
1172.000000	80.546	89.6520
1180.000000	80.610	89.3290
1206.000000	80.804	88.1074
1220.000000	80.894	87.3535
1241.000000	81.006	86.1234
1250.000000	81.051	85.5699
1265.000000	81.133	84.6254
1280.000000	81.235	83.6628
1315.000000	81.525	81.3925
1320.000000	81.565	81.0692
1340.000000	81.710	79.7860
1360.000000	81.823	78.5310
1380.000000	81.897	77.3188
1400.000000	81.935	76.1553
1430.000000	81.957	74.4912
1450.000000	81.961	73.4387
1475.000000	81.965	72.1852
1500.000000	81.970	71.0065
1525.000000	81.970	69.9057
1550.000000	81.965	68.8841
1575.000000	81.963	67.9302
1600.000000	81.963	67.0407
1625.000000	81.964	66.2222
1650.000000	81.968	65.4677
1675.000000	81.973	64.7736
1700.000000	81.983	64.1286
1725.000000	81.999	63.5223
1750.000000	82.019	62.9506
1775.000000	82.037	62.4074
1800.000000	82.058	61.8856
1825.000000	82.084	61.3823
1850.000000	82.116	60.8874
1875.000000	82.151	60.3903
1900.000000	82.189	59.8910
1925.000000	82.232	59.3932
1950.000000	82.278	58.8980
1975.000000	82.327	58.4048
2000.000000	82.379	57.9134
2030.000000	82.445	57.3250
2060.000000	82.515	56.7316
2090.000000	82.587	56.1330
2120.000000	82.663	55.5366
2140.000000	82.715	55.1412
2180.000000	82.825	54.3403
2200.000000	82.880	53.9260
2240.000000	82.995	53.0622
2270.000000	83.083	52.3806
2300.000000	83.172	51.6680
2330.000000	83.262	50.9240
2360.000000	83.356	50.1424
2400.000000	83.485	49.0238
2430.000000	83.582	48.1199
2470.000000	83.709	46.8336
2500.000000	83.804	45.8157
2540.000000	83.927	44.3927
2580.000000	84.043	42.8924
2620.000000	84.151	41.3154
2650.000000	84.230	40.0820
2690.000000	84.331	38.3684
2720.000000	84.402	37.0398
2760.000000	84.488	35.2164
2800.000000	84.562	33.3217
2850.000000	84.633	30.8270
2900.000000	84.676	28.1949
2950.000000	84.684	25.4687
3000.000000	84.654	22.6992
3040.000000	84.602	20.4814
3070.000000	84.547	18.8300
3110.000000	84.452	16.6486
3150.000000	84.335	14.5011
3200.000000	84.163	11.9072
3250.000000	83.967	9.4524
3300.000000	83.746	7.1488
3350.000000	83.505	5.0079
3400.000000	83.250	3.0424
3450.000000	82.981	1.2667
3500.000000	82.701	-0.3030
3550.000000	82.415	-1.6527
3600.000000	82.130	-2.7931
3650.000000	81.843	-3.7568
3700.000000	81.556	-4.5681
3750.000000	81.271	-5.2337
3820.000000	80.880	-5.9325
3870.000000	80.609	-6.2707
3950.000000	80.209	-6.5616
4000.000000	79.980	-6.6234
4060.000000	79.720	-6.6102
4120.000000	79.471	-6.5037
4180.000000	79.230	-6.2978
4250.000000	78.964	-5.9524
4310.000000	78.756	-5.5913
4370.000000	78.578	-5.1932
4440.000000	78.420	-4.7202
4500.000000	78.325	-4.3296
4550.000000	78.269	-4.0192
4620.000000	78.218	-3.6202
4680.000000	78.191	-3.3512
4750.000000	78.162	-3.1363
4820.000000	78.127	-2.9851
4870.000000	78.099	-2.8888
4940.000000	78.058	-2.7440
5000.000000	78.024	-2.6063
5080.000000	77.979	-2.4234
5150.000000	77.939	-2.2792
5220.000000	77.890	-2.1275
5300.000000	77.822	-1.8303
5380.000000	77.763	-1.2613
5450.000000	77.746	-0.5197
5520.000000	77.781	0.3587
5600.000000	77.893	1.3493
5700.000000	78.115	2.3045
5800.000000	78.394	2.7767
5900.000000	78.703	2.7751
6000.000000	79.024	2.3801
6080.000000	79.283	1.7957
6150.000000	79.506	1.1061
6220.000000	79.716	0.2858
6300.000000	79.931	-0.7661
6400.000000	80.160	-2.1824
6500.000000	80.355	-3.6175
6600.000000	80.524	-4.9410
6700.000000	80.696	-6.0937
6800.000000	80.889	-7.2902
6900.000000	81.076	-8.5128
7000.000000	81.269	-9.6300
7100.000000	81.490	-10.7132
7200.000000	81.748	-11.9262
7300.000000	82.034	-13.3910
7400.000000	82.328	-15.0651
7500.000000	82.622	-16.8808
7620.000000	82.970	-19.4468
7750.000000	83.282	-22.9482
7880.000000	83.447	-27.0772
8000.000000	83.445	-31.2492
8120.000000	83.308	-35.5694
8250.000000	83.030	-40.1451
8380.000000	82.637	-44.2930
8500.000000	82.205	-47.4744
8620.000000	81.732	-49.8705
8750.000000	81.201	-51.5599
8850.000000	80.817	-52.2985
9000.000000	80.342	-52.7252
9120.000000	80.045	-52.6892
9250.000000	79.805	-52.4982
9380.000000	79.649	-52.3760
9500.000000	79.558	-52.5141
9620.000000	79.495	-53.0463
9750.000000	79.432	-54.1711
9880.000000	79.326	-55.8648
10000.000000	79.154	-57.8595
10150.000000	78.805	-60.7284
10300.000000	78.290	-63.6131
10440.000000	77.663	-65.8704
10600.000000	76.785	-67.5081
10750.000000	75.849	-67.9253
10900.000000	74.875	-67.2331
11060.000000	73.858	-65.3848
11200.000000	73.014	-62.9709
11380.000000	72.009	-58.9836
11500.000000	71.387	-55.8775
11720.000000	70.361	-49.4845
11800.000000	70.030	-46.9903
12060.000000	69.103	-38.5476
12200.000000	68.684	-33.8380
12410.000000	68.171	-26.5682
12500.000000	67.993	-23.3985
12650.000000	67.735	-18.0374
12800.000000	67.523	-12.4560
13150.000000	67.495	3.3797
13200.000000	67.622	6.0700
13400.000000	68.761	16.2855
13600.000000	70.558	20.8638
13800.000000	71.988	17.0328
14000.000000	72.631	8.9272
14300.000000	72.514	-2.5296
14500.000000	72.057	-8.1071
14750.000000	71.313	-13.0396
15000.000000	70.516	-16.8215
15250.000000	69.658	-20.6552
15500.000000	68.616	-25.0824
15750.000000	67.273	-29.7176
16000.000000	65.633	-32.9536
16250.000000	63.897	-33.8076
16500.000000	62.196	-33.0934
16750.000000	60.480	-31.3408
17000.000000	58.668	-28.3968
17250.000000	56.715	-23.6138
17500.000000	54.605	-14.9159
17750.000000	52.728	0.2522
18000.000000	52.302	16.9816
18250.000000	52.714	26.1240
18500.000000	52.665	31.5704
18750.000000	52.617	38.0629
19000.000000	52.806	42.6705
19250.000000	52.765	44.8756
19500.000000	52.334	46.8174
19750.000000	51.590	48.9203
20000.000000	50.954	50.1763
