* Measurement data measured by REW V5.20.7
* Source: 마이크(Realtek High Definition Audi, MICROPHONE (마스), L, volume: 0.050
* Format: 128k Log Swept Sine, 4 sweeps at -12.0 dBFS with no timing reference
* Dated: 2022. 4. 29 오전 11:37:03
* REW Settings:
*  C-weighting compensation: Off
*  Target level: 75.0 dB
* Note: 
* Measurement: A4000 제출용 R
* Smoothing: 1/24 octave
* Frequency Step: 1/48 octave
* Start Frequency: 20.300 Hz
*
* Freq(Hz)	SPL(dB)	Phase(degrees)
20.299999	79.128	-145.6888
20.600000	79.133	-145.9746
20.900000	79.143	-146.5253
21.200001	79.149	-147.1608
21.400000	79.148	-147.6351
21.799999	79.129	-148.6838
22.000000	79.111	-149.2344
22.400000	79.066	-150.3170
22.700001	79.039	-151.0879
23.000000	79.028	-151.8340
23.299999	79.031	-152.5841
23.600000	79.045	-153.3576
24.000000	79.075	-154.4307
24.299999	79.103	-155.2445
24.700001	79.145	-156.2939
25.000000	79.178	-157.0273
25.400000	79.228	-157.9232
25.799999	79.287	-158.7419
26.200001	79.350	-159.5039
26.500000	79.393	-160.0403
26.900000	79.441	-160.6985
27.200001	79.466	-161.1406
27.600000	79.490	-161.6582
28.000000	79.503	-162.1086
28.500000	79.506	-162.6222
29.000000	79.498	-163.1360
29.500000	79.482	-163.6821
30.000000	79.453	-164.2663
30.400000	79.423	-164.7561
30.700001	79.402	-165.1353
31.100000	79.380	-165.6598
31.500000	79.364	-166.2119
32.000000	79.348	-166.9427
32.500000	79.338	-167.6954
33.000000	79.336	-168.4240
33.500000	79.341	-169.0996
34.000000	79.354	-169.7318
34.500000	79.376	-170.3444
35.000000	79.398	-170.9308
35.500000	79.416	-171.4549
36.000000	79.431	-171.9040
36.500000	79.445	-172.3188
37.000000	79.450	-172.7534
37.500000	79.435	-173.2052
38.200001	79.391	-173.7592
38.700001	79.362	-174.0732
39.500000	79.326	-174.6288
40.000000	79.297	-175.0924
40.599998	79.246	-175.7032
41.200001	79.187	-176.2688
41.799999	79.138	-176.7980
42.500000	79.105	-177.4420
43.099998	79.089	-177.9858
43.700001	79.088	-178.4646
44.400002	79.102	-178.9780
45.000000	79.113	-179.4248
45.500000	79.110	-179.7719
46.200001	79.095	179.8331
46.799999	79.081	179.5351
47.500000	79.061	179.1382
48.200001	79.029	178.7141
48.700001	78.998	178.4349
49.400002	78.951	178.0609
50.000000	78.906	177.7136
50.799999	78.845	177.2228
51.500000	78.795	176.8029
52.200001	78.756	176.3893
53.000000	78.727	175.9400
53.799999	78.711	175.5454
54.500000	78.701	175.2250
55.200001	78.689	174.9107
56.000000	78.668	174.5694
57.000000	78.630	174.1682
58.000000	78.575	173.7821
59.000000	78.512	173.3817
60.000000	78.450	172.9378
60.799999	78.403	172.5947
61.500000	78.370	172.3221
62.200001	78.341	172.0576
63.000000	78.308	171.7529
64.000000	78.266	171.4136
65.000000	78.234	171.1572
66.000000	78.215	170.9032
67.000000	78.192	170.5959
68.000000	78.153	170.3071
69.000000	78.101	170.0623
70.000000	78.041	169.8228
71.000000	77.981	169.5867
72.000000	77.926	169.3523
73.000000	77.875	169.1177
74.000000	77.834	168.8953
75.000000	77.807	168.6748
76.199997	77.784	168.3812
77.500000	77.749	168.0650
78.800003	77.698	167.8014
80.000000	77.639	167.6123
81.199997	77.575	167.4352
82.500000	77.508	167.2056
83.800003	77.457	166.9915
85.000000	77.429	166.8298
86.199997	77.406	166.6672
87.500000	77.371	166.4614
88.500000	77.330	166.3145
90.000000	77.259	166.1488
91.199997	77.203	166.0124
92.500000	77.147	165.8284
93.800003	77.100	165.6564
95.000000	77.066	165.5345
96.199997	77.039	165.4298
97.500000	77.006	165.3172
98.800003	76.961	165.2044
100.000000	76.909	165.0916
101.500000	76.838	164.9673
103.000000	76.778	164.8920
104.400002	76.743	164.8359
106.000000	76.712	164.7407
107.500000	76.674	164.6432
109.000000	76.621	164.5524
110.599998	76.554	164.4798
112.000000	76.501	164.4202
113.800003	76.449	164.3273
115.000000	76.425	164.2686
117.199997	76.383	164.1796
118.000000	76.363	164.1545
120.599998	76.275	164.0991
122.000000	76.229	164.0599
124.099998	76.173	163.9865
125.000000	76.155	163.9568
126.500000	76.126	163.9180
128.000000	76.092	163.8966
131.500000	75.985	163.8735
132.000000	75.970	163.8704
134.000000	75.923	163.8607
136.000000	75.893	163.8578
138.000000	75.858	163.8537
140.000000	75.805	163.8514
143.000000	75.721	163.8628
145.000000	75.684	163.8764
147.500000	75.641	163.8989
150.000000	75.581	163.9176
152.500000	75.516	163.9300
155.000000	75.472	163.9508
157.500000	75.440	163.9969
160.000000	75.398	164.0665
162.500000	75.353	164.1207
165.000000	75.319	164.1556
167.500000	75.293	164.1963
170.000000	75.255	164.2479
172.500000	75.207	164.3025
175.000000	75.168	164.3583
177.500000	75.133	164.4247
180.000000	75.083	164.5009
182.500000	75.015	164.5767
185.000000	74.941	164.6472
187.500000	74.869	164.7181
190.000000	74.804	164.7891
192.500000	74.753	164.8651
195.000000	74.725	164.9489
197.500000	74.708	165.0355
200.000000	74.686	165.1209
203.000000	74.652	165.2213
206.000000	74.622	165.3249
209.000000	74.591	165.4214
212.000000	74.552	165.5102
214.000000	74.529	165.5771
218.000000	74.487	165.7340
220.000000	74.462	165.8091
224.000000	74.408	165.9501
227.000000	74.374	166.0674
230.000000	74.339	166.1882
233.000000	74.301	166.3006
236.000000	74.267	166.4102
240.000000	74.227	166.5678
243.000000	74.197	166.6916
247.000000	74.166	166.8498
250.000000	74.139	166.9667
254.000000	74.092	167.1308
258.000000	74.044	167.2980
262.000000	73.998	167.4595
265.000000	73.968	167.5828
269.000000	73.932	167.7506
272.000000	73.902	167.8773
276.000000	73.861	168.0442
280.000000	73.822	168.2088
285.000000	73.781	168.4248
290.000000	73.742	168.6443
295.000000	73.699	168.8521
300.000000	73.650	169.0610
304.000000	73.611	169.2302
307.000000	73.583	169.3631
311.000000	73.549	169.5516
315.000000	73.519	169.7376
320.000000	73.485	169.9520
325.000000	73.451	170.1573
330.000000	73.414	170.3755
335.000000	73.376	170.6105
340.000000	73.342	170.8425
345.000000	73.312	171.0746
350.000000	73.281	171.3059
355.000000	73.245	171.5310
360.000000	73.207	171.7505
365.000000	73.171	171.9768
370.000000	73.135	172.2150
375.000000	73.100	172.4506
382.000000	73.051	172.7795
387.000000	73.018	173.0198
395.000000	72.972	173.4056
400.000000	72.945	173.6529
406.000000	72.911	173.9409
412.000000	72.874	174.2214
418.000000	72.836	174.5123
425.000000	72.798	174.8591
431.000000	72.766	175.1591
437.000000	72.733	175.4622
444.000000	72.690	175.8167
450.000000	72.656	176.1168
455.000000	72.631	176.3650
462.000000	72.599	176.7255
468.000000	72.570	177.0422
475.000000	72.538	177.4169
482.000000	72.507	177.7939
487.000000	72.483	178.0587
494.000000	72.449	178.4290
500.000000	72.421	178.7502
508.000000	72.385	179.1735
515.000000	72.354	179.5499
522.000000	72.325	179.9360
530.000000	72.298	-179.6221
538.000000	72.274	-179.1817
545.000000	72.246	-178.7805
552.000000	72.211	-178.3727
560.000000	72.176	-177.9128
570.000000	72.147	-177.3400
580.000000	72.120	-176.7488
590.000000	72.080	-176.1541
600.000000	72.041	-175.5732
608.000000	72.016	-175.0979
615.000000	71.999	-174.6719
622.000000	71.983	-174.2423
630.000000	71.964	-173.7501
640.000000	71.940	-173.1294
650.000000	71.916	-172.5008
660.000000	71.894	-171.8631
670.000000	71.875	-171.2291
680.000000	71.858	-170.5860
690.000000	71.839	-169.9342
700.000000	71.821	-169.2726
710.000000	71.809	-168.6055
720.000000	71.799	-167.9441
730.000000	71.795	-167.2714
740.000000	71.795	-166.5841
750.000000	71.795	-165.9015
762.000000	71.797	-165.0890
775.000000	71.802	-164.2090
788.000000	71.814	-163.3286
800.000000	71.831	-162.5141
812.000000	71.850	-161.7059
825.000000	71.871	-160.8369
838.000000	71.897	-159.9750
850.000000	71.922	-159.1877
862.000000	71.949	-158.4108
875.000000	71.987	-157.5787
885.000000	72.023	-156.9508
900.000000	72.079	-156.0221
912.000000	72.125	-155.2943
925.000000	72.181	-154.5387
938.000000	72.243	-153.8111
950.000000	72.304	-153.1594
962.000000	72.366	-152.5297
975.000000	72.435	-151.8756
988.000000	72.508	-151.2528
1000.000000	72.578	-150.7071
1015.000000	72.670	-150.0731
1030.000000	72.764	-149.4862
1044.000000	72.852	-148.9683
1060.000000	72.951	-148.4247
1075.000000	73.044	-147.9537
1090.000000	73.140	-147.5348
1106.000000	73.246	-147.1488
1120.000000	73.341	-146.8481
1138.000000	73.462	-146.5249
1150.000000	73.541	-146.3542
1172.000000	73.678	-146.1336
1180.000000	73.724	-146.0816
1206.000000	73.853	-146.0506
1220.000000	73.904	-146.1306
1241.000000	73.957	-146.3819
1250.000000	73.973	-146.5353
1265.000000	73.997	-146.8387
1280.000000	74.025	-147.1726
1315.000000	74.059	-147.7150
1320.000000	74.055	-147.7193
1340.000000	74.019	-147.4628
1360.000000	73.973	-146.7831
1380.000000	73.934	-145.8012
1400.000000	73.908	-144.6842
1430.000000	73.919	-142.9714
1450.000000	73.970	-141.9091
1475.000000	74.075	-140.8173
1500.000000	74.186	-139.9906
1525.000000	74.277	-139.2466
1550.000000	74.360	-138.4927
1575.000000	74.447	-137.7248
1600.000000	74.536	-136.9628
1625.000000	74.628	-136.2169
1650.000000	74.724	-135.4905
1675.000000	74.822	-134.7788
1700.000000	74.924	-134.0753
1725.000000	75.032	-133.3799
1750.000000	75.141	-132.6908
1775.000000	75.247	-132.0141
1800.000000	75.354	-131.3521
1825.000000	75.466	-130.6970
1850.000000	75.580	-130.0499
1875.000000	75.696	-129.4129
1900.000000	75.815	-128.7850
1925.000000	75.937	-128.1655
1950.000000	76.062	-127.5598
1975.000000	76.189	-126.9689
2000.000000	76.319	-126.3904
2030.000000	76.477	-125.7168
2060.000000	76.639	-125.0647
2090.000000	76.803	-124.4376
2120.000000	76.970	-123.8346
2140.000000	77.084	-123.4432
2180.000000	77.315	-122.6899
2200.000000	77.433	-122.3297
2240.000000	77.672	-121.6536
2270.000000	77.853	-121.1856
2300.000000	78.038	-120.7505
2330.000000	78.225	-120.3481
2360.000000	78.417	-119.9792
2400.000000	78.679	-119.5456
2430.000000	78.879	-119.2665
2470.000000	79.149	-118.9576
2500.000000	79.354	-118.7747
2540.000000	79.630	-118.6005
2580.000000	79.906	-118.5086
2620.000000	80.181	-118.5052
2650.000000	80.390	-118.5640
2690.000000	80.672	-118.7238
2720.000000	80.884	-118.9075
2760.000000	81.163	-119.2405
2800.000000	81.440	-119.6754
2850.000000	81.783	-120.3717
2900.000000	82.118	-121.2473
2950.000000	82.443	-122.2942
3000.000000	82.755	-123.5097
3040.000000	82.991	-124.6015
3070.000000	83.158	-125.4863
3110.000000	83.368	-126.7465
3150.000000	83.562	-128.0939
3200.000000	83.783	-129.8857
3250.000000	83.976	-131.7774
3300.000000	84.137	-133.7420
3350.000000	84.266	-135.7495
3400.000000	84.365	-137.7694
3450.000000	84.434	-139.7708
3500.000000	84.470	-141.7241
3550.000000	84.477	-143.6049
3600.000000	84.458	-145.3898
3650.000000	84.413	-147.0593
3700.000000	84.346	-148.5995
3750.000000	84.261	-149.9998
3820.000000	84.117	-151.7134
3870.000000	84.003	-152.7637
3950.000000	83.820	-154.1577
4000.000000	83.707	-154.8605
4060.000000	83.570	-155.5438
4120.000000	83.426	-156.0650
4180.000000	83.271	-156.4423
4250.000000	83.083	-156.7295
4310.000000	82.922	-156.8526
4370.000000	82.773	-156.8687
4440.000000	82.628	-156.7622
4500.000000	82.531	-156.5744
4550.000000	82.465	-156.3588
4620.000000	82.392	-155.9780
4680.000000	82.345	-155.5870
4750.000000	82.304	-155.0707
4820.000000	82.275	-154.5010
4870.000000	82.264	-154.0685
4940.000000	82.261	-153.4415
5000.000000	82.268	-152.8938
5080.000000	82.293	-152.1633
5150.000000	82.331	-151.5382
5220.000000	82.382	-150.9415
5300.000000	82.452	-150.2983
5380.000000	82.536	-149.7006
5450.000000	82.623	-149.2226
5520.000000	82.726	-148.7877
5600.000000	82.862	-148.3550
5700.000000	83.050	-147.9489
5800.000000	83.258	-147.7313
5900.000000	83.488	-147.7298
6000.000000	83.743	-147.9753
6080.000000	83.968	-148.3628
6150.000000	84.177	-148.8494
6220.000000	84.390	-149.4800
6300.000000	84.628	-150.3799
6400.000000	84.910	-151.7725
6500.000000	85.176	-153.4552
6600.000000	85.419	-155.4161
6700.000000	85.629	-157.6268
6800.000000	85.804	-160.0334
6900.000000	85.940	-162.5529
7000.000000	86.035	-165.1014
7100.000000	86.095	-167.6184
7200.000000	86.135	-170.0938
7300.000000	86.172	-172.5484
7400.000000	86.204	-174.9903
7500.000000	86.221	-177.4241
7620.000000	86.208	179.6457
7750.000000	86.136	176.4191
7880.000000	85.966	173.0917
8000.000000	85.717	169.9126
8120.000000	85.407	166.6293
8250.000000	85.023	162.9696
8380.000000	84.598	159.2571
8500.000000	84.170	155.8625
8620.000000	83.693	152.5814
8750.000000	83.098	149.2610
8850.000000	82.596	146.9460
9000.000000	81.805	143.9814
9120.000000	81.135	142.1264
9250.000000	80.380	140.6712
9380.000000	79.613	139.7891
9500.000000	78.899	139.4619
9620.000000	78.187	139.5678
9750.000000	77.434	140.1304
9880.000000	76.701	141.1140
10000.000000	76.047	142.3510
10150.000000	75.279	144.2857
10300.000000	74.578	146.5892
10440.000000	73.986	149.0253
10600.000000	73.356	152.0978
10750.000000	72.798	155.2024
10900.000000	72.293	158.4853
11060.000000	71.826	162.1640
11200.000000	71.479	165.5145
11380.000000	71.105	169.9519
11500.000000	70.893	172.9727
11720.000000	70.592	178.5975
11800.000000	70.516	-179.3449
12060.000000	70.388	-172.6717
12200.000000	70.399	-169.1228
12410.000000	70.550	-163.9525
12500.000000	70.665	-161.8197
12650.000000	70.922	-158.4201
12800.000000	71.264	-155.2627
13150.000000	72.419	-149.2654
13200.000000	72.614	-148.6283
13400.000000	73.448	-146.8562
13600.000000	74.368	-146.7161
13800.000000	75.353	-148.8599
14000.000000	76.289	-153.8946
14300.000000	77.137	-166.6817
14500.000000	77.075	-176.7408
14750.000000	76.276	172.6105
15000.000000	74.978	166.2152
15250.000000	73.556	163.8690
15500.000000	72.245	164.3647
15750.000000	71.207	166.5594
16000.000000	70.591	169.5661
16250.000000	70.431	172.6415
16500.000000	70.682	175.0277
16750.000000	71.332	175.7113
17000.000000	72.304	173.0585
17250.000000	73.292	164.9289
17500.000000	73.720	150.5339
17750.000000	73.074	133.4308
18000.000000	71.325	119.7134
18250.000000	68.876	112.3369
18500.000000	66.197	110.6153
18750.000000	63.593	113.1744
19000.000000	61.225	118.9982
19250.000000	59.219	127.0455
19500.000000	57.549	136.2288
19750.000000	56.080	145.1054
20000.000000	55.115	150.4736
