* Measurement data measured by REW V5.20.7
* Source: Mic in at rear panel (Pink)(Realtek(R) Audio), MICROPHONE (마스), L, volume: 1.000
* Format: 128k Log Swept Sine, 1 sweep at -12.0 dBFS with no timing reference
* Dated: 2022. 5. 15 오후 3:38:43
* REW Settings:
*  C-weighting compensation: Off
*  Target level: 75.0 dB
* Note: 
* Measurement: R
* Smoothing: 1/24 octave
* Frequency Step: 1/48 octave
* Start Frequency: 20.300 Hz
*
* Freq(Hz)	SPL(dB)	Phase(degrees)
20.299999	80.964	-134.6437
20.600000	80.973	-134.9644
20.900000	80.988	-135.5142
21.200001	80.994	-135.9774
21.400000	80.994	-136.2437
21.799999	80.990	-136.7289
22.000000	80.987	-136.9670
22.400000	80.984	-137.4419
22.700001	80.989	-137.8007
23.000000	81.002	-138.1693
23.299999	81.019	-138.5509
23.600000	81.037	-138.9466
24.000000	81.062	-139.4901
24.299999	81.082	-139.8973
24.700001	81.111	-140.4197
25.000000	81.134	-140.7867
25.400000	81.169	-141.2446
25.799999	81.212	-141.6854
26.200001	81.261	-142.1293
26.500000	81.296	-142.4662
26.900000	81.335	-142.9104
27.200001	81.358	-143.2286
27.600000	81.379	-143.6241
28.000000	81.392	-143.9899
28.500000	81.393	-144.4165
29.000000	81.378	-144.7926
29.500000	81.356	-145.0693
30.000000	81.334	-145.2230
30.400000	81.326	-145.2963
30.700001	81.331	-145.3608
31.100000	81.352	-145.5064
31.500000	81.376	-145.7368
32.000000	81.397	-146.1057
32.500000	81.409	-146.4731
33.000000	81.419	-146.7705
33.500000	81.433	-147.0026
34.000000	81.454	-147.2074
34.500000	81.482	-147.4032
35.000000	81.516	-147.5881
35.500000	81.555	-147.7714
36.000000	81.595	-147.9652
36.500000	81.628	-148.1470
37.000000	81.656	-148.2692
37.500000	81.688	-148.3365
38.200001	81.750	-148.5067
38.700001	81.791	-148.7527
39.500000	81.804	-149.0801
40.000000	81.800	-149.1061
40.599998	81.812	-149.1119
41.200001	81.816	-149.2885
41.799999	81.780	-149.4508
42.500000	81.738	-149.2187
43.099998	81.781	-148.8415
43.700001	81.884	-148.8141
44.400002	81.983	-149.3242
45.000000	82.008	-149.8057
45.500000	82.012	-150.0187
46.200001	82.033	-150.1346
46.799999	82.067	-150.2598
47.500000	82.104	-150.4549
48.200001	82.140	-150.6029
48.700001	82.167	-150.6890
49.400002	82.196	-150.8336
50.000000	82.205	-150.9519
50.799999	82.209	-151.0108
51.500000	82.224	-151.0057
52.200001	82.257	-151.0583
53.000000	82.306	-151.2281
53.799999	82.353	-151.4443
54.500000	82.388	-151.6105
55.200001	82.422	-151.7231
56.000000	82.466	-151.7934
57.000000	82.526	-151.9044
58.000000	82.560	-152.0533
59.000000	82.580	-152.0626
60.000000	82.627	-152.1198
60.799999	82.659	-152.3046
61.500000	82.676	-152.4239
62.200001	82.700	-152.4640
63.000000	82.742	-152.5314
64.000000	82.797	-152.7092
65.000000	82.856	-152.8745
66.000000	82.923	-153.0469
67.000000	82.980	-153.2561
68.000000	83.022	-153.4002
69.000000	83.057	-153.5034
70.000000	83.083	-153.6373
71.000000	83.110	-153.7946
72.000000	83.138	-153.9850
73.000000	83.163	-154.1572
74.000000	83.197	-154.2602
75.000000	83.248	-154.3277
76.199997	83.318	-154.4702
77.500000	83.370	-154.5744
78.800003	83.424	-154.5269
80.000000	83.482	-154.5998
81.199997	83.523	-154.8671
82.500000	83.543	-155.2230
83.800003	83.573	-155.5183
85.000000	83.611	-155.7613
86.199997	83.652	-155.8894
87.500000	83.707	-156.0187
88.500000	83.742	-156.1566
90.000000	83.778	-156.3352
91.199997	83.801	-156.4674
92.500000	83.828	-156.6180
93.800003	83.863	-156.7904
95.000000	83.902	-156.9562
96.199997	83.943	-157.0991
97.500000	83.987	-157.2396
98.800003	84.019	-157.3972
100.000000	84.035	-157.5352
101.500000	84.050	-157.6644
103.000000	84.081	-157.8255
104.400002	84.120	-158.0249
106.000000	84.169	-158.2238
107.500000	84.212	-158.3954
109.000000	84.238	-158.5646
110.599998	84.249	-158.7141
112.000000	84.261	-158.8377
113.800003	84.299	-159.0499
115.000000	84.335	-159.2159
117.199997	84.406	-159.4292
118.000000	84.430	-159.4922
120.599998	84.475	-159.7999
122.000000	84.474	-159.9533
124.099998	84.492	-160.1184
125.000000	84.507	-160.2039
126.500000	84.536	-160.3537
128.000000	84.562	-160.5033
131.500000	84.599	-160.8203
132.000000	84.606	-160.8637
134.000000	84.642	-161.0364
136.000000	84.688	-161.1564
138.000000	84.727	-161.2640
140.000000	84.743	-161.3962
143.000000	84.770	-161.6767
145.000000	84.803	-161.9056
147.500000	84.839	-162.1053
150.000000	84.853	-162.2657
152.500000	84.863	-162.4426
155.000000	84.902	-162.6026
157.500000	84.952	-162.7345
160.000000	84.981	-162.8670
162.500000	84.998	-163.0645
165.000000	85.033	-163.2980
167.500000	85.083	-163.4858
170.000000	85.122	-163.5688
172.500000	85.146	-163.6476
175.000000	85.171	-163.7486
177.500000	85.203	-163.8587
180.000000	85.218	-163.9944
182.500000	85.204	-164.1251
185.000000	85.182	-164.2219
187.500000	85.165	-164.3078
190.000000	85.155	-164.4026
192.500000	85.156	-164.5160
195.000000	85.182	-164.6291
197.500000	85.224	-164.7393
200.000000	85.261	-164.8568
203.000000	85.291	-164.9909
206.000000	85.321	-165.0608
209.000000	85.349	-165.0782
212.000000	85.365	-165.1534
214.000000	85.377	-165.2512
218.000000	85.414	-165.4545
220.000000	85.429	-165.5283
224.000000	85.447	-165.6236
227.000000	85.464	-165.6980
230.000000	85.483	-165.7468
233.000000	85.506	-165.7613
236.000000	85.533	-165.7863
240.000000	85.563	-165.8849
243.000000	85.580	-165.9988
247.000000	85.618	-166.1307
250.000000	85.641	-166.1915
254.000000	85.646	-166.2376
258.000000	85.658	-166.2928
262.000000	85.685	-166.3600
265.000000	85.705	-166.3988
269.000000	85.728	-166.4493
272.000000	85.739	-166.4923
276.000000	85.754	-166.5560
280.000000	85.779	-166.6196
285.000000	85.815	-166.6788
290.000000	85.840	-166.7310
295.000000	85.860	-166.7441
300.000000	85.883	-166.7706
304.000000	85.906	-166.8605
307.000000	85.923	-166.9288
311.000000	85.941	-166.9651
315.000000	85.957	-166.9557
320.000000	85.985	-166.9553
325.000000	86.023	-166.9966
330.000000	86.059	-167.0266
335.000000	86.091	-167.0365
340.000000	86.117	-167.0382
345.000000	86.143	-167.0470
350.000000	86.170	-167.0782
355.000000	86.199	-167.0913
360.000000	86.229	-167.0854
365.000000	86.251	-167.1005
370.000000	86.271	-167.1420
375.000000	86.297	-167.1658
382.000000	86.336	-167.1281
387.000000	86.363	-167.1201
395.000000	86.412	-167.1530
400.000000	86.447	-167.1778
406.000000	86.483	-167.2172
412.000000	86.516	-167.2348
418.000000	86.548	-167.2565
425.000000	86.592	-167.2973
431.000000	86.629	-167.3020
437.000000	86.665	-167.3174
444.000000	86.706	-167.3611
450.000000	86.741	-167.4144
455.000000	86.776	-167.4718
462.000000	86.825	-167.5681
468.000000	86.861	-167.6745
475.000000	86.906	-167.7842
482.000000	86.954	-167.9055
487.000000	86.985	-168.0406
494.000000	87.022	-168.2662
500.000000	87.045	-168.4658
508.000000	87.057	-168.7153
515.000000	87.047	-168.8095
522.000000	87.047	-168.7716
530.000000	87.076	-168.6629
538.000000	87.126	-168.6095
545.000000	87.171	-168.6479
552.000000	87.208	-168.7114
560.000000	87.248	-168.7932
570.000000	87.303	-168.9938
580.000000	87.350	-169.2609
590.000000	87.382	-169.5209
600.000000	87.406	-169.8061
608.000000	87.430	-170.0766
615.000000	87.450	-170.3205
622.000000	87.464	-170.5642
630.000000	87.468	-170.8393
640.000000	87.462	-171.1495
650.000000	87.451	-171.4565
660.000000	87.433	-171.7605
670.000000	87.402	-172.0080
680.000000	87.360	-172.1411
690.000000	87.311	-172.1879
700.000000	87.259	-172.1603
710.000000	87.211	-172.0393
720.000000	87.168	-171.8442
730.000000	87.134	-171.5824
740.000000	87.112	-171.2747
750.000000	87.100	-170.9606
762.000000	87.089	-170.5606
775.000000	87.093	-170.1152
788.000000	87.113	-169.7162
800.000000	87.136	-169.4088
812.000000	87.159	-169.1288
825.000000	87.180	-168.8316
838.000000	87.198	-168.5578
850.000000	87.210	-168.3337
862.000000	87.219	-168.0826
875.000000	87.230	-167.7921
885.000000	87.243	-167.5658
900.000000	87.259	-167.2317
912.000000	87.271	-166.9691
925.000000	87.284	-166.6609
938.000000	87.304	-166.3292
950.000000	87.325	-166.0204
962.000000	87.345	-165.6896
975.000000	87.363	-165.3135
988.000000	87.378	-164.9299
1000.000000	87.398	-164.5868
1015.000000	87.440	-164.2245
1030.000000	87.486	-163.8578
1044.000000	87.529	-163.4787
1060.000000	87.578	-163.0333
1075.000000	87.623	-162.6458
1090.000000	87.673	-162.2776
1106.000000	87.732	-161.8883
1120.000000	87.784	-161.5559
1138.000000	87.852	-161.1346
1150.000000	87.896	-160.8624
1172.000000	87.976	-160.3843
1180.000000	88.003	-160.2120
1206.000000	88.074	-159.6565
1220.000000	88.104	-159.3650
1241.000000	88.140	-158.9306
1250.000000	88.158	-158.7434
1265.000000	88.203	-158.4288
1280.000000	88.278	-158.1175
1315.000000	88.541	-157.3815
1320.000000	88.582	-157.2688
1340.000000	88.742	-156.8114
1360.000000	88.885	-156.3397
1380.000000	88.998	-155.8740
1400.000000	89.086	-155.4089
1430.000000	89.207	-154.6532
1450.000000	89.289	-154.1422
1475.000000	89.404	-153.4821
1500.000000	89.531	-152.8135
1525.000000	89.661	-152.1423
1550.000000	89.798	-151.4795
1575.000000	89.945	-150.7952
1600.000000	90.099	-150.0972
1625.000000	90.262	-149.4242
1650.000000	90.433	-148.7619
1675.000000	90.610	-148.1069
1700.000000	90.799	-147.4733
1725.000000	91.002	-146.8605
1750.000000	91.212	-146.2737
1775.000000	91.427	-145.7157
1800.000000	91.650	-145.1804
1825.000000	91.886	-144.6781
1850.000000	92.134	-144.2288
1875.000000	92.391	-143.8410
1900.000000	92.656	-143.5222
1925.000000	92.931	-143.2742
1950.000000	93.215	-143.0970
1975.000000	93.511	-142.9926
2000.000000	93.816	-142.9747
2030.000000	94.192	-143.0980
2060.000000	94.581	-143.3904
2090.000000	94.980	-143.8676
2120.000000	95.386	-144.5529
2140.000000	95.661	-145.1352
2180.000000	96.215	-146.6364
2200.000000	96.491	-147.5667
2240.000000	97.033	-149.8252
2270.000000	97.424	-151.8929
2300.000000	97.792	-154.2846
2330.000000	98.131	-156.9959
2360.000000	98.432	-160.0164
2400.000000	98.760	-164.4732
2430.000000	98.938	-168.0740
2470.000000	99.072	-173.1016
2500.000000	99.093	-176.9377
2540.000000	99.015	178.0208
2580.000000	98.825	173.2260
2620.000000	98.540	168.8082
2650.000000	98.282	165.7808
2690.000000	97.895	162.1373
2720.000000	97.580	159.6897
2760.000000	97.132	156.7908
2800.000000	96.665	154.2754
2850.000000	96.062	151.5921
2900.000000	95.444	149.3286
2950.000000	94.809	147.4175
3000.000000	94.151	145.8502
3040.000000	93.603	144.8704
3070.000000	93.178	144.3030
3110.000000	92.594	143.7907
3150.000000	91.994	143.5867
3200.000000	91.224	143.8181
3250.000000	90.447	144.6704
3300.000000	89.678	146.1652
3350.000000	88.932	148.2863
3400.000000	88.227	151.0163
3450.000000	87.583	154.3159
3500.000000	87.011	158.0797
3550.000000	86.519	162.1891
3600.000000	86.112	166.5379
3650.000000	85.789	171.0294
3700.000000	85.549	175.5646
3750.000000	85.388	-179.9243
3820.000000	85.283	-173.7892
3870.000000	85.285	-169.5678
3950.000000	85.414	-163.1328
4000.000000	85.567	-159.3408
4060.000000	85.805	-155.0956
4120.000000	86.097	-151.1945
4180.000000	86.439	-147.6026
4250.000000	86.900	-143.9044
4310.000000	87.354	-141.2043
4370.000000	87.870	-139.0184
4440.000000	88.563	-137.2404
4500.000000	89.233	-136.5179
4550.000000	89.831	-136.6307
4620.000000	90.690	-138.1341
4680.000000	91.393	-140.9015
4750.000000	92.074	-146.0183
4820.000000	92.482	-152.9657
4870.000000	92.547	-158.6376
4940.000000	92.283	-166.6624
5000.000000	91.749	-172.7789
5080.000000	90.711	-178.9048
5150.000000	89.640	177.8560
5220.000000	88.531	176.3802
5300.000000	87.305	176.3877
5380.000000	86.166	177.6761
5450.000000	85.249	179.5458
5520.000000	84.405	-178.0638
5600.000000	83.524	-174.8446
5700.000000	82.532	-170.2814
5800.000000	81.646	-165.1714
5900.000000	80.873	-159.6720
6000.000000	80.211	-153.9799
6080.000000	79.760	-149.3351
6150.000000	79.418	-145.1946
6220.000000	79.119	-141.0252
6300.000000	78.821	-136.2698
6400.000000	78.500	-130.3028
6500.000000	78.239	-124.2982
6600.000000	78.032	-118.3656
6700.000000	77.874	-112.4150
6800.000000	77.786	-106.4492
6900.000000	77.775	-100.6206
7000.000000	77.829	-94.9486
7100.000000	77.941	-89.4387
7200.000000	78.112	-84.2683
7300.000000	78.339	-79.5354
7400.000000	78.608	-75.1824
7500.000000	78.899	-71.2358
7620.000000	79.248	-67.1847
7750.000000	79.584	-63.7287
7880.000000	79.790	-61.2999
8000.000000	79.817	-59.8720
8120.000000	79.677	-59.0574
8250.000000	79.329	-58.4302
8380.000000	78.798	-57.4960
8500.000000	78.193	-55.9401
8620.000000	77.513	-53.4639
8750.000000	76.715	-49.7579
8850.000000	76.099	-46.2669
9000.000000	75.230	-40.0994
9120.000000	74.593	-34.4214
9250.000000	73.969	-27.7552
9380.000000	73.423	-20.6485
9500.000000	72.979	-13.8234
9620.000000	72.600	-6.8440
9750.000000	72.275	0.8824
9880.000000	72.031	8.6549
10000.000000	71.867	15.8334
10150.000000	71.777	24.7172
10300.000000	71.833	33.4429
10440.000000	71.983	41.3725
10600.000000	72.240	50.0527
10750.000000	72.578	57.7003
10900.000000	73.001	64.7476
11060.000000	73.570	71.4552
11200.000000	74.188	76.3859
11380.000000	75.073	81.0292
11500.000000	75.639	82.8377
11720.000000	76.383	83.1328
11800.000000	76.493	82.6346
12060.000000	76.409	81.9069
12200.000000	76.226	81.7909
12410.000000	75.644	82.3036
12500.000000	75.306	83.2213
12650.000000	74.712	85.7978
12800.000000	74.164	89.3893
13150.000000	73.268	99.4559
13200.000000	73.167	100.8723
13400.000000	72.755	106.0829
13600.000000	72.270	110.3545
13800.000000	71.665	113.8186
14000.000000	70.891	117.1014
14300.000000	69.448	123.4993
14500.000000	68.410	128.9201
14750.000000	67.071	136.6088
15000.000000	65.609	145.0392
15250.000000	63.890	155.1955
15500.000000	61.928	169.8423
15750.000000	60.235	-169.1973
16000.000000	60.159	-143.5419
16250.000000	62.502	-120.3188
16500.000000	66.213	-106.7396
16750.000000	70.138	-106.8944
17000.000000	72.945	-125.8943
17250.000000	73.276	-159.5632
17500.000000	70.949	173.2451
17750.000000	67.226	159.7052
18000.000000	63.277	152.0524
18250.000000	59.385	131.1574
18500.000000	55.486	-41.8523
18750.000000	51.514	1.3807
19000.000000	47.817	35.2930
19250.000000	45.385	61.3125
19500.000000	44.522	110.0586
19750.000000	44.271	-107.7031
20000.000000	44.071	146.2031
