* Measurement data measured by REW V5.20.7
* Source: Mic in at rear panel (Pink)(Realtek(R) Audio), MICROPHONE (마스), L, volume: 1.000
* Format: 128k Log Swept Sine, 1 sweep at -12.0 dBFS with no timing reference
* Dated: 2022. 5. 15 오후 3:34:55
* REW Settings:
*  C-weighting compensation: Off
*  Target level: 75.0 dB
* Note: 
* Measurement: L
* Smoothing: 1/24 octave
* Frequency Step: 1/48 octave
* Start Frequency: 20.300 Hz
*
* Freq(Hz)	SPL(dB)	Phase(degrees)
20.299999	84.729	-148.5373
20.600000	84.746	-148.7144
20.900000	84.779	-149.0354
21.200001	84.804	-149.3553
21.400000	84.817	-149.5721
21.799999	84.832	-150.0302
22.000000	84.834	-150.2743
22.400000	84.834	-150.7822
22.700001	84.834	-151.1728
23.000000	84.837	-151.5659
23.299999	84.840	-151.9532
23.600000	84.840	-152.3272
24.000000	84.842	-152.7971
24.299999	84.849	-153.1286
24.700001	84.866	-153.5528
25.000000	84.882	-153.8666
25.400000	84.907	-154.2846
25.799999	84.939	-154.6972
26.200001	84.976	-155.0971
26.500000	85.006	-155.3914
26.900000	85.044	-155.7885
27.200001	85.069	-156.0984
27.600000	85.094	-156.5260
28.000000	85.106	-156.9438
28.500000	85.103	-157.3944
29.000000	85.094	-157.7364
29.500000	85.096	-158.0142
30.000000	85.104	-158.3075
30.400000	85.110	-158.5824
30.700001	85.116	-158.8097
31.100000	85.124	-159.1253
31.500000	85.129	-159.4361
32.000000	85.131	-159.7888
32.500000	85.136	-160.0797
33.000000	85.151	-160.3186
33.500000	85.174	-160.5551
34.000000	85.202	-160.8443
34.500000	85.225	-161.1875
35.000000	85.240	-161.5344
35.500000	85.251	-161.8386
36.000000	85.262	-162.1058
36.500000	85.275	-162.3688
37.000000	85.283	-162.6404
37.500000	85.286	-162.9059
38.200001	85.292	-163.2491
38.700001	85.306	-163.4855
39.500000	85.326	-163.8747
40.000000	85.333	-164.1228
40.599998	85.334	-164.4057
41.200001	85.331	-164.6404
41.799999	85.336	-164.8446
42.500000	85.364	-165.1649
43.099998	85.388	-165.5579
43.700001	85.399	-165.9383
44.400002	85.404	-166.2107
45.000000	85.418	-166.3410
45.500000	85.435	-166.4674
46.200001	85.451	-166.6945
46.799999	85.455	-166.8757
47.500000	85.460	-167.0385
48.200001	85.473	-167.1900
48.700001	85.483	-167.3153
49.400002	85.490	-167.5305
50.000000	85.483	-167.7432
50.799999	85.464	-168.0145
51.500000	85.447	-168.2161
52.200001	85.439	-168.4055
53.000000	85.444	-168.6101
53.799999	85.463	-168.7916
54.500000	85.487	-168.9673
55.200001	85.510	-169.1879
56.000000	85.526	-169.4584
57.000000	85.530	-169.7231
58.000000	85.528	-169.9263
59.000000	85.519	-170.1658
60.000000	85.509	-170.3918
60.799999	85.513	-170.5576
61.500000	85.522	-170.7374
62.200001	85.525	-170.9239
63.000000	85.524	-171.0596
64.000000	85.542	-171.1474
65.000000	85.581	-171.3425
66.000000	85.609	-171.6150
67.000000	85.626	-171.8525
68.000000	85.634	-172.0575
69.000000	85.632	-172.2183
70.000000	85.630	-172.3936
71.000000	85.626	-172.6100
72.000000	85.620	-172.8123
73.000000	85.612	-172.9558
74.000000	85.616	-173.0136
75.000000	85.642	-173.0751
76.199997	85.685	-173.2561
77.500000	85.717	-173.5454
78.800003	85.728	-173.8202
80.000000	85.727	-174.0460
81.199997	85.712	-174.2474
82.500000	85.697	-174.3732
83.800003	85.711	-174.4589
85.000000	85.743	-174.5762
86.199997	85.773	-174.7441
87.500000	85.789	-174.9335
88.500000	85.796	-175.0655
90.000000	85.793	-175.2984
91.199997	85.777	-175.4397
92.500000	85.771	-175.5572
93.800003	85.779	-175.7092
95.000000	85.795	-175.8692
96.199997	85.814	-176.0226
97.500000	85.834	-176.1658
98.800003	85.848	-176.3113
100.000000	85.849	-176.4585
101.500000	85.839	-176.6073
103.000000	85.838	-176.7230
104.400002	85.851	-176.8551
106.000000	85.875	-177.0463
107.500000	85.897	-177.2622
109.000000	85.908	-177.5237
110.599998	85.902	-177.7446
112.000000	85.899	-177.8397
113.800003	85.915	-177.9485
115.000000	85.931	-178.0348
117.199997	85.954	-178.2606
118.000000	85.952	-178.3715
120.599998	85.930	-178.5955
122.000000	85.941	-178.7374
124.099998	85.969	-179.0307
125.000000	85.983	-179.1288
126.500000	86.004	-179.2468
128.000000	86.019	-179.3284
131.500000	86.020	-179.5323
132.000000	86.021	-179.5722
134.000000	86.039	-179.7905
136.000000	86.065	179.9586
138.000000	86.086	179.7275
140.000000	86.090	179.5301
143.000000	86.102	179.2484
145.000000	86.123	179.0508
147.500000	86.143	178.8061
150.000000	86.142	178.5878
152.500000	86.148	178.3483
155.000000	86.171	178.0613
157.500000	86.194	177.8127
160.000000	86.200	177.5634
162.500000	86.201	177.3111
165.000000	86.224	177.0893
167.500000	86.259	176.8763
170.000000	86.272	176.6706
172.500000	86.267	176.4695
175.000000	86.282	176.2171
177.500000	86.307	175.9174
180.000000	86.311	175.6547
182.500000	86.288	175.4650
185.000000	86.263	175.2784
187.500000	86.238	175.0628
190.000000	86.218	174.8657
192.500000	86.214	174.6507
195.000000	86.232	174.3949
197.500000	86.256	174.1270
200.000000	86.269	173.9186
203.000000	86.280	173.6652
206.000000	86.293	173.3518
209.000000	86.301	173.0515
212.000000	86.301	172.7981
214.000000	86.304	172.6497
218.000000	86.314	172.2985
220.000000	86.310	172.0899
224.000000	86.294	171.7332
227.000000	86.300	171.4939
230.000000	86.304	171.2192
233.000000	86.298	170.9557
236.000000	86.293	170.6934
240.000000	86.289	170.3237
243.000000	86.289	170.0271
247.000000	86.294	169.6566
250.000000	86.290	169.4104
254.000000	86.272	169.0802
258.000000	86.255	168.7047
262.000000	86.241	168.3253
265.000000	86.232	168.1006
269.000000	86.223	167.8253
272.000000	86.214	167.6130
276.000000	86.197	167.3030
280.000000	86.176	166.9638
285.000000	86.149	166.5648
290.000000	86.123	166.1834
295.000000	86.100	165.7990
300.000000	86.072	165.3833
304.000000	86.048	165.0717
307.000000	86.026	164.8437
311.000000	85.994	164.5529
315.000000	85.969	164.2955
320.000000	85.942	163.9985
325.000000	85.912	163.6825
330.000000	85.878	163.3495
335.000000	85.841	163.0503
340.000000	85.808	162.7701
345.000000	85.778	162.4853
350.000000	85.738	162.2013
355.000000	85.684	161.9070
360.000000	85.635	161.6071
365.000000	85.595	161.3662
370.000000	85.551	161.1383
375.000000	85.502	160.8921
382.000000	85.434	160.5898
387.000000	85.389	160.3984
395.000000	85.317	160.1000
400.000000	85.266	159.8967
406.000000	85.200	159.6667
412.000000	85.132	159.4654
418.000000	85.066	159.3237
425.000000	84.990	159.1535
431.000000	84.926	158.9694
437.000000	84.859	158.8094
444.000000	84.780	158.6955
450.000000	84.716	158.6364
455.000000	84.666	158.5759
462.000000	84.593	158.4837
468.000000	84.529	158.4596
475.000000	84.449	158.4627
482.000000	84.371	158.4995
487.000000	84.314	158.5277
494.000000	84.230	158.5614
500.000000	84.162	158.6172
508.000000	84.077	158.6805
515.000000	83.998	158.7319
522.000000	83.920	158.8243
530.000000	83.840	159.0056
538.000000	83.761	159.2564
545.000000	83.685	159.4565
552.000000	83.602	159.6462
560.000000	83.506	159.9177
570.000000	83.394	160.2927
580.000000	83.296	160.7183
590.000000	83.194	161.1532
600.000000	83.090	161.6410
608.000000	83.012	162.0670
615.000000	82.950	162.4501
622.000000	82.891	162.8631
630.000000	82.825	163.3858
640.000000	82.741	164.0643
650.000000	82.661	164.7679
660.000000	82.585	165.5059
670.000000	82.516	166.3315
680.000000	82.461	167.2257
690.000000	82.415	168.1163
700.000000	82.375	169.0058
710.000000	82.338	169.8985
720.000000	82.310	170.8370
730.000000	82.291	171.8177
740.000000	82.281	172.7552
750.000000	82.274	173.6506
762.000000	82.271	174.7969
775.000000	82.286	176.1042
788.000000	82.328	177.3783
800.000000	82.376	178.5724
812.000000	82.423	179.7662
825.000000	82.497	-178.9541
838.000000	82.588	-177.7253
850.000000	82.678	-176.6753
862.000000	82.772	-175.6520
875.000000	82.887	-174.5803
885.000000	82.992	-173.7997
900.000000	83.152	-172.7216
912.000000	83.280	-171.9473
925.000000	83.428	-171.1815
938.000000	83.577	-170.4729
950.000000	83.713	-169.8691
962.000000	83.847	-169.2730
975.000000	83.991	-168.6513
988.000000	84.135	-168.0674
1000.000000	84.280	-167.5418
1015.000000	84.492	-166.8472
1030.000000	84.711	-166.2706
1044.000000	84.916	-165.8504
1060.000000	85.158	-165.4506
1075.000000	85.393	-165.1776
1090.000000	85.630	-165.0329
1106.000000	85.888	-165.0515
1120.000000	86.115	-165.2002
1138.000000	86.396	-165.5263
1150.000000	86.578	-165.8342
1172.000000	86.890	-166.5709
1180.000000	86.993	-166.8851
1206.000000	87.292	-168.0658
1220.000000	87.429	-168.7727
1241.000000	87.605	-169.9052
1250.000000	87.673	-170.4207
1265.000000	87.791	-171.2972
1280.000000	87.925	-172.1637
1315.000000	88.278	-174.1821
1320.000000	88.326	-174.4694
1340.000000	88.501	-175.5934
1360.000000	88.641	-176.6582
1380.000000	88.737	-177.6607
1400.000000	88.793	-178.5824
1430.000000	88.836	-179.8431
1450.000000	88.853	179.4008
1475.000000	88.876	178.5573
1500.000000	88.899	177.8282
1525.000000	88.913	177.2046
1550.000000	88.926	176.6755
1575.000000	88.941	176.2588
1600.000000	88.958	175.9099
1625.000000	88.982	175.6347
1650.000000	89.010	175.4306
1675.000000	89.042	175.2905
1700.000000	89.082	175.2062
1725.000000	89.132	175.1703
1750.000000	89.188	175.1659
1775.000000	89.250	175.1879
1800.000000	89.317	175.2312
1825.000000	89.395	175.2960
1850.000000	89.483	175.3927
1875.000000	89.581	175.5010
1900.000000	89.689	175.6051
1925.000000	89.805	175.6879
1950.000000	89.930	175.7501
1975.000000	90.063	175.8013
2000.000000	90.203	175.8273
2030.000000	90.382	175.8167
2060.000000	90.572	175.7512
2090.000000	90.772	175.6146
2120.000000	90.983	175.4039
2140.000000	91.129	175.2162
2180.000000	91.429	174.7231
2200.000000	91.584	174.4174
2240.000000	91.895	173.6544
2270.000000	92.132	172.9515
2300.000000	92.371	172.1362
2330.000000	92.610	171.2027
2360.000000	92.852	170.1588
2400.000000	93.176	168.5707
2430.000000	93.416	167.2245
2470.000000	93.731	165.2255
2500.000000	93.962	163.5467
2540.000000	94.257	161.0156
2580.000000	94.524	158.1280
2620.000000	94.752	154.8924
2650.000000	94.890	152.2479
2690.000000	95.020	148.4769
2720.000000	95.071	145.5183
2760.000000	95.070	141.4897
2800.000000	94.990	137.4575
2850.000000	94.784	132.5488
2900.000000	94.475	127.9366
2950.000000	94.077	123.7410
3000.000000	93.613	120.0117
3040.000000	93.200	117.3677
3070.000000	92.868	115.5829
3110.000000	92.403	113.4756
3150.000000	91.916	111.6929
3200.000000	91.284	109.9256
3250.000000	90.632	108.6622
3300.000000	89.968	107.9115
3350.000000	89.304	107.7108
3400.000000	88.653	108.0525
3450.000000	88.027	108.8809
3500.000000	87.432	110.1713
3550.000000	86.879	111.8866
3600.000000	86.378	113.9717
3650.000000	85.931	116.3462
3700.000000	85.542	118.9465
3750.000000	85.219	121.7167
3820.000000	84.872	125.7029
3870.000000	84.691	128.5314
3950.000000	84.522	132.8972
4000.000000	84.469	135.5102
4060.000000	84.434	138.5996
4120.000000	84.440	141.6989
4180.000000	84.498	144.7365
4250.000000	84.632	148.0472
4310.000000	84.809	150.6314
4370.000000	85.048	152.9570
4440.000000	85.405	155.3000
4500.000000	85.770	156.9662
4550.000000	86.113	158.0758
4620.000000	86.651	159.1121
4680.000000	87.159	159.4854
4750.000000	87.794	159.2437
4820.000000	88.461	158.0892
4870.000000	88.948	156.5730
4940.000000	89.611	153.2651
5000.000000	90.101	149.1871
5080.000000	90.523	142.0474
5150.000000	90.586	134.7841
5220.000000	90.326	127.5052
5300.000000	89.676	120.2561
5380.000000	88.761	114.8277
5450.000000	87.846	111.6773
5520.000000	86.903	109.8727
5600.000000	85.852	109.1978
5700.000000	84.636	109.8899
5800.000000	83.561	111.6767
5900.000000	82.616	114.1700
6000.000000	81.789	117.1650
6080.000000	81.218	119.8691
6150.000000	80.776	122.4203
6220.000000	80.381	125.1196
6300.000000	79.984	128.3263
6400.000000	79.564	132.4064
6500.000000	79.212	136.5717
6600.000000	78.944	140.8691
6700.000000	78.756	145.2192
6800.000000	78.641	149.5099
6900.000000	78.607	153.6964
7000.000000	78.638	157.7158
7100.000000	78.723	161.5131
7200.000000	78.890	165.0695
7300.000000	79.139	168.3648
7400.000000	79.444	171.2596
7500.000000	79.787	173.6129
7620.000000	80.217	175.5789
7750.000000	80.653	176.5498
7880.000000	80.957	176.2284
8000.000000	81.056	174.8099
8120.000000	80.960	172.5980
8250.000000	80.612	169.8862
8380.000000	80.030	167.5595
8500.000000	79.329	166.3011
8620.000000	78.523	166.1406
8750.000000	77.588	167.2312
8850.000000	76.882	168.8704
9000.000000	75.893	172.5339
9120.000000	75.168	176.2912
9250.000000	74.472	-179.0407
9380.000000	73.866	-173.9596
9500.000000	73.375	-169.0179
9620.000000	72.957	-163.8803
9750.000000	72.598	-158.1487
9880.000000	72.324	-152.3460
10000.000000	72.157	-147.0507
10150.000000	72.057	-140.5374
10300.000000	72.070	-134.1921
10440.000000	72.211	-128.6043
10600.000000	72.489	-122.6930
10750.000000	72.823	-117.7271
10900.000000	73.236	-113.3784
11060.000000	73.776	-109.5910
11200.000000	74.306	-107.1232
11380.000000	75.044	-105.0529
11500.000000	75.567	-104.5268
11720.000000	76.485	-106.1463
11800.000000	76.746	-107.7170
12060.000000	77.049	-115.1239
12200.000000	76.832	-119.1355
12410.000000	76.164	-123.3402
12500.000000	75.818	-124.3449
12650.000000	75.237	-125.1044
12800.000000	74.714	-125.1487
13150.000000	73.790	-125.5100
13200.000000	73.660	-125.8397
13400.000000	73.001	-128.2197
13600.000000	71.988	-131.8024
13800.000000	70.529	-135.3576
14000.000000	68.615	-137.8510
14300.000000	64.796	-135.9374
14500.000000	61.571	-125.4208
14750.000000	57.314	-94.5473
15000.000000	56.274	-49.8803
15250.000000	59.396	-17.0125
15500.000000	62.777	-2.4659
15750.000000	65.665	1.0963
16000.000000	68.236	-1.2897
16250.000000	70.765	-7.4777
16500.000000	73.590	-18.1891
16750.000000	76.339	-39.5800
17000.000000	77.472	-77.4063
17250.000000	75.889	-117.8308
17500.000000	72.157	-143.2448
17750.000000	67.850	-157.2446
18000.000000	64.053	-168.4411
18250.000000	60.785	179.5041
18500.000000	57.761	162.4335
18750.000000	54.802	111.8643
19000.000000	51.964	-138.3312
19250.000000	49.744	-28.5049
19500.000000	48.320	12.1777
19750.000000	47.653	-173.7568
20000.000000	47.653	23.8359
