* Measurement data measured by REW V5.20.13
* Source: EXCL: Mic in at rear panel (Pink)(Realtek(R) Audio), MICROPHONE (마스), L, volume: 1.000
* Format: 256k Log Swept Sine, 1 sweep at -12.0 dBFS with no timing reference
* Dated: 2022. 12. 31 오후 6:49:02
* REW Settings:
*  C-weighting compensation: Off
*  Target level: 75.0 dB
* Note: 
* Measurement: 12월 31
* Smoothing: 1/24 octave
* Frequency Step: 1/48 octave
* Start Frequency: 20.300 Hz
*
* Freq(Hz)	SPL(dB)	Phase(degrees)
20.299999	79.529	-167.8014
20.600000	79.549	-167.5771
20.900000	79.585	-167.2361
21.200001	79.607	-167.0615
21.400000	79.610	-167.0045
21.799999	79.593	-166.9109
22.000000	79.579	-166.8329
22.400000	79.555	-166.6115
22.700001	79.550	-166.4498
23.000000	79.557	-166.3583
23.299999	79.568	-166.3611
23.600000	79.578	-166.4381
24.000000	79.588	-166.5902
24.299999	79.597	-166.6938
24.700001	79.620	-166.8090
25.000000	79.649	-166.9091
25.400000	79.697	-167.1059
25.799999	79.747	-167.3755
26.200001	79.793	-167.6618
26.500000	79.825	-167.8513
26.900000	79.871	-168.0618
27.200001	79.910	-168.2137
27.600000	79.966	-168.4597
28.000000	80.017	-168.7891
28.500000	80.061	-169.2719
29.000000	80.077	-169.6939
29.500000	80.082	-169.9598
30.000000	80.099	-170.1115
30.400000	80.127	-170.2455
30.700001	80.154	-170.3989
31.100000	80.190	-170.6970
31.500000	80.217	-171.0802
32.000000	80.230	-171.5884
32.500000	80.232	-172.0254
33.000000	80.239	-172.3711
33.500000	80.262	-172.7021
34.000000	80.291	-173.0964
34.500000	80.311	-173.5355
35.000000	80.319	-173.9361
35.500000	80.324	-174.2446
36.000000	80.337	-174.4903
36.500000	80.359	-174.7357
37.000000	80.385	-175.0235
37.500000	80.412	-175.3657
38.200001	80.444	-175.9413
38.700001	80.459	-176.4148
39.500000	80.464	-177.2274
40.000000	80.457	-177.7281
40.599998	80.439	-178.2645
41.200001	80.424	-178.6915
41.799999	80.425	-179.0771
42.500000	80.432	-179.6273
43.099998	80.418	179.8752
43.700001	80.391	179.5500
44.400002	80.387	179.3210
45.000000	80.405	178.9415
45.500000	80.400	178.4449
46.200001	80.340	177.8031
46.799999	80.279	177.5107
47.500000	80.247	177.2131
48.200001	80.229	176.6915
48.700001	80.204	176.2726
49.400002	80.167	175.8087
50.000000	80.155	175.4706
50.799999	80.158	174.9211
51.500000	80.154	174.3962
52.200001	80.140	173.9574
53.000000	80.124	173.5837
53.799999	80.109	173.2653
54.500000	80.090	172.9549
55.200001	80.053	172.6169
56.000000	79.993	172.2976
57.000000	79.926	171.9722
58.000000	79.861	171.4885
59.000000	79.776	171.0712
60.000000	79.724	170.8444
60.799999	79.708	170.5589
61.500000	79.688	170.2518
62.200001	79.662	169.9922
63.000000	79.630	169.7310
64.000000	79.574	169.3935
65.000000	79.501	169.1683
66.000000	79.437	168.9703
67.000000	79.366	168.6389
68.000000	79.278	168.3416
69.000000	79.203	168.1276
70.000000	79.143	167.8574
71.000000	79.078	167.5638
72.000000	79.009	167.3576
73.000000	78.945	167.2297
74.000000	78.884	167.1266
75.000000	78.827	167.0443
76.199997	78.765	166.8628
77.500000	78.678	166.6205
78.800003	78.595	166.5571
80.000000	78.533	166.4242
81.199997	78.456	166.2702
82.500000	78.364	166.1591
83.800003	78.265	166.1179
85.000000	78.187	166.1231
86.199997	78.123	166.0366
87.500000	78.052	165.8728
88.500000	77.992	165.7979
90.000000	77.909	165.8893
91.199997	77.866	166.0635
92.500000	77.829	166.1581
93.800003	77.768	166.1913
95.000000	77.698	166.2760
96.199997	77.626	166.3564
97.500000	77.546	166.4317
98.800003	77.477	166.4932
100.000000	77.421	166.5051
101.500000	77.352	166.5461
103.000000	77.283	166.6414
104.400002	77.214	166.7938
106.000000	77.127	166.9932
107.500000	77.046	167.1928
109.000000	76.969	167.3445
110.599998	76.888	167.5211
112.000000	76.825	167.7436
113.800003	76.759	168.1023
115.000000	76.722	168.3235
117.199997	76.655	168.6790
118.000000	76.632	168.7731
120.599998	76.514	169.1149
122.000000	76.450	169.5755
124.099998	76.386	170.1750
125.000000	76.354	170.3557
126.500000	76.288	170.6390
128.000000	76.219	170.9747
131.500000	76.125	171.8733
132.000000	76.117	171.9871
134.000000	76.085	172.4157
136.000000	76.041	172.8036
138.000000	75.984	173.0990
140.000000	75.909	173.3682
143.000000	75.841	174.0600
145.000000	75.836	174.5375
147.500000	75.804	175.1337
150.000000	75.743	175.7480
152.500000	75.697	176.2441
155.000000	75.684	176.7173
157.500000	75.679	177.2913
160.000000	75.656	177.9858
162.500000	75.621	178.6409
165.000000	75.586	179.2153
167.500000	75.547	179.7344
170.000000	75.516	-179.7184
172.500000	75.508	-179.1829
175.000000	75.510	-178.6504
177.500000	75.503	-178.1285
180.000000	75.492	-177.6306
182.500000	75.493	-177.1965
185.000000	75.491	-176.7234
187.500000	75.488	-176.1665
190.000000	75.485	-175.6021
192.500000	75.491	-175.0406
195.000000	75.508	-174.5117
197.500000	75.525	-174.0965
200.000000	75.534	-173.7441
203.000000	75.552	-173.2193
206.000000	75.572	-172.5791
209.000000	75.583	-171.9178
212.000000	75.588	-171.3287
214.000000	75.595	-170.9939
218.000000	75.636	-170.4852
220.000000	75.670	-170.2204
224.000000	75.737	-169.4590
227.000000	75.752	-168.9965
230.000000	75.740	-168.6889
233.000000	75.751	-168.3436
236.000000	75.781	-167.9730
240.000000	75.821	-167.5051
243.000000	75.860	-167.1594
247.000000	75.933	-166.6862
250.000000	75.977	-166.2647
254.000000	76.017	-165.5506
258.000000	76.047	-164.9944
262.000000	76.077	-164.7290
265.000000	76.100	-164.5699
269.000000	76.120	-164.2211
272.000000	76.144	-163.9062
276.000000	76.196	-163.5350
280.000000	76.260	-163.1176
285.000000	76.327	-162.6241
290.000000	76.391	-162.1920
295.000000	76.474	-161.7883
300.000000	76.555	-161.4372
304.000000	76.593	-161.1393
307.000000	76.611	-160.9070
311.000000	76.641	-160.6619
315.000000	76.686	-160.4388
320.000000	76.742	-160.0680
325.000000	76.810	-159.7385
330.000000	76.911	-159.4031
335.000000	76.997	-159.0057
340.000000	77.053	-158.6960
345.000000	77.097	-158.4864
350.000000	77.153	-158.2806
355.000000	77.200	-157.9948
360.000000	77.237	-157.6832
365.000000	77.277	-157.4454
370.000000	77.320	-157.2561
375.000000	77.361	-157.0987
382.000000	77.416	-156.8230
387.000000	77.473	-156.6162
395.000000	77.561	-156.2895
400.000000	77.600	-156.0849
406.000000	77.644	-155.8607
412.000000	77.694	-155.6992
418.000000	77.758	-155.4754
425.000000	77.816	-155.1159
431.000000	77.861	-154.8770
437.000000	77.926	-154.6521
444.000000	78.005	-154.3957
450.000000	78.067	-154.2632
455.000000	78.113	-154.1911
462.000000	78.176	-154.1456
468.000000	78.238	-154.1152
475.000000	78.311	-154.0339
482.000000	78.378	-153.9180
487.000000	78.421	-153.7819
494.000000	78.470	-153.6720
500.000000	78.514	-153.7104
508.000000	78.589	-153.7202
515.000000	78.665	-153.6639
522.000000	78.738	-153.6205
530.000000	78.818	-153.5761
538.000000	78.880	-153.4767
545.000000	78.920	-153.4243
552.000000	78.965	-153.4960
560.000000	79.023	-153.6355
570.000000	79.092	-153.8474
580.000000	79.173	-154.0605
590.000000	79.250	-154.0913
600.000000	79.282	-154.1374
608.000000	79.304	-154.3110
615.000000	79.329	-154.4691
622.000000	79.356	-154.5886
630.000000	79.385	-154.6931
640.000000	79.407	-154.9004
650.000000	79.417	-155.1944
660.000000	79.440	-155.4143
670.000000	79.455	-155.4471
680.000000	79.438	-155.4560
690.000000	79.404	-155.6494
700.000000	79.366	-155.8809
710.000000	79.352	-155.9863
720.000000	79.353	-156.0267
730.000000	79.327	-156.0447
740.000000	79.275	-156.0465
750.000000	79.230	-155.9349
762.000000	79.183	-155.7124
775.000000	79.142	-155.5506
788.000000	79.105	-155.3300
800.000000	79.062	-155.0526
812.000000	79.009	-154.7251
825.000000	78.955	-154.3301
838.000000	78.926	-153.8458
850.000000	78.909	-153.2459
862.000000	78.890	-152.6357
875.000000	78.882	-152.0936
885.000000	78.875	-151.7083
900.000000	78.853	-150.9619
912.000000	78.832	-150.3668
925.000000	78.799	-149.7459
938.000000	78.785	-149.1650
950.000000	78.800	-148.6417
962.000000	78.811	-148.0761
975.000000	78.814	-147.3270
988.000000	78.820	-146.4070
1000.000000	78.829	-145.5344
1015.000000	78.864	-144.5210
1030.000000	78.929	-143.4694
1044.000000	79.012	-142.5188
1060.000000	79.105	-141.5882
1075.000000	79.188	-140.7455
1090.000000	79.305	-139.8407
1106.000000	79.466	-139.0337
1120.000000	79.617	-138.5755
1138.000000	79.803	-138.0428
1150.000000	79.928	-137.6633
1172.000000	80.178	-137.1002
1180.000000	80.271	-136.9730
1206.000000	80.609	-136.7551
1220.000000	80.787	-136.7722
1241.000000	81.013	-136.9770
1250.000000	81.096	-137.1038
1265.000000	81.225	-137.3591
1280.000000	81.355	-137.6137
1315.000000	81.642	-138.4289
1320.000000	81.681	-138.6010
1340.000000	81.826	-139.3593
1360.000000	81.925	-140.0948
1380.000000	82.001	-140.8403
1400.000000	82.075	-141.6035
1430.000000	82.126	-142.8429
1450.000000	82.132	-143.6477
1475.000000	82.157	-144.4423
1500.000000	82.150	-144.9089
1525.000000	82.116	-145.1048
1550.000000	82.098	-145.2536
1575.000000	82.105	-145.3209
1600.000000	82.133	-145.1403
1625.000000	82.134	-144.8237
1650.000000	82.104	-144.6220
1675.000000	82.101	-144.5627
1700.000000	82.124	-144.5117
1725.000000	82.157	-144.3159
1750.000000	82.198	-143.8917
1775.000000	82.249	-143.4554
1800.000000	82.305	-143.0766
1825.000000	82.376	-142.7054
1850.000000	82.438	-142.3106
1875.000000	82.489	-141.9733
1900.000000	82.552	-141.6864
1925.000000	82.613	-141.5398
1950.000000	82.692	-141.3731
1975.000000	82.790	-141.0807
2000.000000	82.880	-140.8542
2030.000000	83.004	-140.7828
2060.000000	83.155	-140.5858
2090.000000	83.322	-140.3196
2120.000000	83.477	-140.3031
2140.000000	83.582	-140.4736
2180.000000	83.806	-140.9878
2200.000000	83.921	-141.2792
2240.000000	84.128	-142.0488
2270.000000	84.228	-142.8204
2300.000000	84.311	-143.5905
2330.000000	84.421	-144.3772
2360.000000	84.529	-145.1748
2400.000000	84.619	-146.0615
2430.000000	84.670	-146.6255
2470.000000	84.736	-147.4686
2500.000000	84.770	-148.0995
2540.000000	84.808	-148.7952
2580.000000	84.852	-149.3392
2620.000000	84.889	-149.9957
2650.000000	84.932	-150.6076
2690.000000	85.016	-151.4074
2720.000000	85.082	-152.0233
2760.000000	85.167	-153.1617
2800.000000	85.253	-154.4485
2850.000000	85.319	-156.0887
2900.000000	85.312	-157.6503
2950.000000	85.259	-159.1829
3000.000000	85.219	-160.7177
3040.000000	85.172	-161.9037
3070.000000	85.130	-162.7033
3110.000000	85.062	-163.6703
3150.000000	84.982	-164.6531
3200.000000	84.861	-165.8509
3250.000000	84.730	-166.9164
3300.000000	84.609	-167.9569
3350.000000	84.483	-168.9668
3400.000000	84.344	-169.8968
3450.000000	84.202	-170.7789
3500.000000	84.070	-171.6346
3550.000000	83.934	-172.5039
3600.000000	83.777	-173.2789
3650.000000	83.600	-173.8891
3700.000000	83.392	-174.5027
3750.000000	83.176	-175.0429
3820.000000	82.885	-175.3367
3870.000000	82.681	-175.4576
3950.000000	82.340	-175.6115
4000.000000	82.138	-175.5228
4060.000000	81.910	-175.2819
4120.000000	81.673	-175.0090
4180.000000	81.441	-174.5626
4250.000000	81.183	-173.8279
4310.000000	80.960	-173.0634
4370.000000	80.748	-172.1516
4440.000000	80.535	-170.9597
4500.000000	80.371	-169.8669
4550.000000	80.246	-168.9784
4620.000000	80.096	-167.7917
4680.000000	79.989	-166.7848
4750.000000	79.872	-165.7165
4820.000000	79.766	-164.7346
4870.000000	79.694	-163.8678
4940.000000	79.623	-162.3069
5000.000000	79.628	-160.9455
5080.000000	79.689	-159.8544
5150.000000	79.721	-159.5161
5220.000000	79.706	-159.2060
5300.000000	79.654	-158.7325
5380.000000	79.619	-158.1198
5450.000000	79.611	-157.7520
5520.000000	79.593	-157.6743
5600.000000	79.528	-157.6634
5700.000000	79.372	-157.4199
5800.000000	79.165	-156.4487
5900.000000	79.006	-154.7588
6000.000000	78.955	-152.9246
6080.000000	78.984	-151.2100
6150.000000	79.067	-149.5868
6220.000000	79.227	-148.0805
6300.000000	79.504	-146.7031
6400.000000	79.956	-145.7400
6500.000000	80.466	-145.9959
6600.000000	80.940	-147.5757
6700.000000	81.328	-150.4797
6800.000000	81.576	-154.2220
6900.000000	81.639	-158.2698
7000.000000	81.515	-162.2018
7100.000000	81.247	-165.6166
7200.000000	80.882	-168.1519
7300.000000	80.489	-169.7099
7400.000000	80.076	-170.4747
7500.000000	79.685	-170.5444
7620.000000	79.314	-169.9844
7750.000000	79.042	-168.9082
7880.000000	78.851	-167.5349
8000.000000	78.762	-166.3146
8120.000000	78.762	-165.2520
8250.000000	78.824	-164.2969
8380.000000	78.967	-163.8172
8500.000000	79.175	-163.9494
8620.000000	79.437	-164.7297
8750.000000	79.748	-166.6087
8850.000000	79.993	-169.0356
9000.000000	80.254	-174.4755
9120.000000	80.258	179.8096
9250.000000	79.966	173.0289
9380.000000	79.329	166.8130
9500.000000	78.505	162.4667
9620.000000	77.569	159.8488
9750.000000	76.566	158.7411
9880.000000	75.696	158.8173
10000.000000	75.047	159.3459
10150.000000	74.357	159.8614
10300.000000	73.675	160.1422
10440.000000	73.036	160.6406
10600.000000	72.351	161.5354
10750.000000	71.732	162.6072
10900.000000	71.155	163.9537
11060.000000	70.590	165.6133
11200.000000	70.109	167.1436
11380.000000	69.539	169.3241
11500.000000	69.221	170.8701
11720.000000	68.726	173.7684
11800.000000	68.560	174.8564
12060.000000	68.082	178.4023
12200.000000	67.868	-179.5601
12410.000000	67.576	-176.5022
12500.000000	67.464	-175.2622
12650.000000	67.323	-173.2591
12800.000000	67.243	-171.2100
13150.000000	67.246	-166.9333
13200.000000	67.270	-166.3795
13400.000000	67.418	-164.2867
13600.000000	67.644	-162.4858
13800.000000	67.965	-161.0387
14000.000000	68.391	-159.9621
14300.000000	69.242	-158.7282
14500.000000	70.032	-158.4905
14750.000000	71.322	-159.5415
15000.000000	72.902	-163.3265
15250.000000	74.668	-171.2742
15500.000000	76.290	175.5873
15750.000000	77.340	157.3146
16000.000000	77.495	136.8491
16250.000000	76.807	118.6848
16500.000000	75.685	104.9030
16750.000000	74.543	94.6657
17000.000000	73.581	86.4333
17250.000000	72.836	79.0015
17500.000000	72.300	71.5438
17750.000000	71.921	63.6556
18000.000000	71.636	54.9471
18250.000000	71.418	41.5840
18500.000000	71.236	-19.9453
18750.000000	70.721	-129.8007
19000.000000	68.762	-109.3196
19250.000000	64.086	-151.6934
19500.000000	56.728	51.9219
19750.000000	47.977	157.9688
20000.000000	41.279	-147.8281
