* Measurement data measured by REW V5.20.13
* Source: EXCL: Mic in at rear panel (Pink)(Realtek(R) Audio), MICROPHONE (마스), L, volume: 1.000
* Format: 256k Log Swept Sine, 1 sweep at -12.0 dBFS with no timing reference
* Dated: 2022. 12. 31 오전 11:46:05
* REW Settings:
*  C-weighting compensation: Off
*  Target level: 75.0 dB
* Note: 
* Measurement: L_56db
* Smoothing: 1/24 octave
* Frequency Step: 1/48 octave
* Start Frequency: 20.300 Hz
*
* Freq(Hz)	SPL(dB)	Phase(degrees)
20.299999	63.552	158.8767
20.600000	63.609	158.6127
20.900000	63.703	158.1738
21.200001	63.747	157.8807
21.400000	63.762	157.8308
21.799999	63.799	158.0142
22.000000	63.835	158.1708
22.400000	63.945	158.3696
22.700001	64.040	158.2695
23.000000	64.123	157.9126
23.299999	64.179	157.3480
23.600000	64.203	156.6296
24.000000	64.179	155.5151
24.299999	64.116	154.6362
24.700001	63.971	153.5529
25.000000	63.830	152.9421
25.400000	63.637	152.5077
25.799999	63.505	152.3473
26.200001	63.472	151.9467
26.500000	63.472	151.1457
26.900000	63.449	149.2602
27.200001	63.341	147.4611
27.600000	63.029	145.2515
28.000000	62.563	144.3084
28.500000	62.009	145.8319
29.000000	61.883	149.1775
29.500000	62.240	151.5791
30.000000	62.686	151.3837
30.400000	62.871	149.9764
30.700001	62.879	148.9056
31.100000	62.776	148.2268
31.500000	62.655	148.5957
32.000000	62.635	149.8017
32.500000	62.745	150.5464
33.000000	62.818	150.3758
33.500000	62.763	149.9867
34.000000	62.649	150.0637
34.500000	62.587	150.3352
35.000000	62.580	150.0586
35.500000	62.526	149.0048
36.000000	62.360	147.7546
36.500000	62.127	146.9627
37.000000	61.936	146.6987
37.500000	61.848	146.4888
38.200001	61.840	145.4211
38.700001	61.825	143.9934
39.500000	61.627	141.4266
40.000000	61.392	140.4827
40.599998	61.115	140.5245
41.200001	60.982	141.1436
41.799999	60.944	141.2333
42.500000	60.808	140.7906
43.099998	60.624	141.0460
43.700001	60.556	141.7129
44.400002	60.628	141.4591
45.000000	60.627	140.0191
45.500000	60.512	138.7112
46.200001	60.276	137.6362
46.799999	60.128	137.3378
47.500000	60.056	137.0357
48.200001	60.015	136.5191
48.700001	59.960	136.2055
49.400002	59.854	136.3349
50.000000	59.811	137.0524
50.799999	59.884	137.8945
51.500000	59.933	137.8604
52.200001	59.873	137.7930
53.000000	59.813	138.1464
53.799999	59.817	137.7636
54.500000	59.728	136.6581
55.200001	59.543	135.6758
56.000000	59.327	134.8050
57.000000	59.051	133.9639
58.000000	58.878	133.6781
59.000000	58.744	132.6645
60.000000	58.436	132.6212
60.799999	58.298	133.7856
61.500000	58.312	134.6423
62.200001	58.376	134.9113
63.000000	58.407	134.3803
64.000000	58.225	133.6131
65.000000	58.042	134.3753
66.000000	58.059	134.5736
67.000000	57.948	133.9949
68.000000	57.773	134.2445
69.000000	57.644	134.9417
70.000000	57.613	135.8628
71.000000	57.644	135.7338
72.000000	57.478	135.2198
73.000000	57.270	135.9566
74.000000	57.239	136.7993
75.000000	57.242	136.6002
76.199997	57.036	135.9261
77.500000	56.677	136.8265
78.800003	56.508	138.2108
80.000000	56.431	138.2706
81.199997	56.266	137.6180
82.500000	56.124	137.0018
83.800003	56.024	135.9391
85.000000	55.923	135.4953
86.199997	55.869	135.6444
87.500000	55.882	136.3324
88.500000	55.924	136.5009
90.000000	55.789	136.4490
91.199997	55.663	137.8978
92.500000	55.857	139.0679
93.800003	55.972	137.9258
95.000000	55.773	137.3308
96.199997	55.511	138.7017
97.500000	55.407	140.8929
98.800003	55.339	141.8854
100.000000	55.124	142.0628
101.500000	54.732	142.4366
103.000000	54.450	142.4048
104.400002	54.160	141.6497
106.000000	53.874	142.4487
107.500000	53.930	143.5634
109.000000	54.029	143.6391
110.599998	54.010	143.2469
112.000000	53.922	142.7203
113.800003	53.887	141.7216
115.000000	53.865	140.9527
117.199997	54.093	142.9315
118.000000	54.368	144.0672
120.599998	54.804	144.6614
122.000000	54.476	145.6446
124.099998	53.855	147.7669
125.000000	53.598	148.4420
126.500000	53.267	149.5772
128.000000	53.231	150.8376
131.500000	53.435	148.7693
132.000000	53.356	148.4138
134.000000	52.927	148.7607
136.000000	52.765	151.0533
138.000000	52.923	152.2257
140.000000	53.025	152.1692
143.000000	52.860	152.6356
145.000000	52.806	153.2554
147.500000	52.692	152.7811
150.000000	52.645	152.2900
152.500000	52.732	152.4613
155.000000	52.785	155.1008
157.500000	52.671	158.7394
160.000000	52.458	160.4821
162.500000	52.448	159.2447
165.000000	52.600	157.2384
167.500000	52.474	157.2286
170.000000	52.347	159.0848
172.500000	52.348	158.9694
175.000000	52.234	158.3121
177.500000	52.172	159.2132
180.000000	52.226	160.0588
182.500000	52.183	160.6366
185.000000	52.109	161.9056
187.500000	52.124	162.7235
190.000000	52.168	162.3977
192.500000	52.160	161.5524
195.000000	51.982	160.9802
197.500000	51.701	161.7326
200.000000	51.522	163.3448
203.000000	51.451	165.3887
206.000000	51.604	166.3580
209.000000	51.900	166.1713
212.000000	51.983	167.0527
214.000000	51.914	168.5133
218.000000	51.894	169.9457
220.000000	51.945	169.8431
224.000000	52.002	170.4076
227.000000	51.919	170.5791
230.000000	51.708	170.1010
233.000000	51.461	169.7943
236.000000	51.455	170.3337
240.000000	51.754	170.8920
243.000000	51.950	170.8817
247.000000	52.192	170.5238
250.000000	52.120	170.3456
254.000000	51.723	171.0470
258.000000	51.607	171.9968
262.000000	51.697	174.1804
265.000000	51.778	175.3065
269.000000	51.908	175.7472
272.000000	51.932	176.6406
276.000000	51.834	178.2686
280.000000	51.929	178.6982
285.000000	51.993	178.5364
290.000000	51.776	-179.1483
295.000000	51.588	-179.7694
300.000000	51.599	-179.4395
304.000000	51.947	-178.1385
307.000000	52.069	-177.4335
311.000000	52.138	-177.1108
315.000000	52.326	-176.8920
320.000000	52.452	-175.2415
325.000000	52.437	-175.3017
330.000000	52.496	-175.3879
335.000000	52.578	-174.4154
340.000000	52.477	-174.0720
345.000000	52.430	-173.5159
350.000000	52.554	-173.6027
355.000000	52.570	-173.9485
360.000000	52.504	-173.5232
365.000000	52.613	-173.5746
370.000000	52.853	-174.2383
375.000000	53.046	-174.4351
382.000000	53.178	-173.6040
387.000000	53.203	-172.2295
395.000000	53.090	-171.3818
400.000000	53.215	-171.6702
406.000000	53.447	-172.6785
412.000000	53.460	-173.9581
418.000000	53.228	-174.0289
425.000000	53.111	-174.1674
431.000000	53.426	-175.0004
437.000000	53.484	-175.5519
444.000000	53.361	-175.3701
450.000000	53.442	-175.0768
455.000000	53.494	-174.8726
462.000000	53.418	-174.6490
468.000000	53.409	-174.1474
475.000000	53.477	-173.1662
482.000000	53.328	-173.1263
487.000000	53.164	-173.5908
494.000000	53.091	-175.0137
500.000000	53.204	-175.7450
508.000000	53.306	-175.8361
515.000000	53.280	-176.6694
522.000000	53.274	-176.0157
530.000000	53.266	-174.4348
538.000000	53.171	-174.1694
545.000000	53.026	-173.9035
552.000000	53.038	-173.8376
560.000000	53.137	-174.5975
570.000000	53.076	-174.9751
580.000000	53.079	-174.5471
590.000000	53.243	-174.1119
600.000000	53.166	-174.1547
608.000000	53.037	-174.3782
615.000000	53.070	-174.6810
622.000000	53.154	-174.3552
630.000000	53.139	-174.0172
640.000000	52.899	-174.1679
650.000000	52.628	-174.1943
660.000000	52.629	-173.7014
670.000000	52.675	-171.8021
680.000000	52.497	-170.6393
690.000000	52.415	-170.8327
700.000000	52.501	-171.5405
710.000000	52.566	-171.2347
720.000000	52.534	-170.0901
730.000000	52.509	-169.2573
740.000000	52.533	-168.9878
750.000000	52.614	-168.7180
762.000000	52.718	-167.5537
775.000000	52.678	-167.0438
788.000000	52.627	-168.0284
800.000000	52.566	-168.2489
812.000000	52.470	-167.7012
825.000000	52.351	-167.5339
838.000000	52.358	-167.6518
850.000000	52.340	-168.0869
862.000000	52.248	-168.0207
875.000000	52.139	-166.6616
885.000000	52.010	-165.7755
900.000000	51.894	-165.3372
912.000000	51.771	-165.1304
925.000000	51.565	-164.1879
938.000000	51.581	-163.5438
950.000000	51.682	-162.2405
962.000000	51.677	-160.1440
975.000000	51.742	-158.4648
988.000000	51.973	-157.4015
1000.000000	52.159	-156.6152
1015.000000	51.968	-156.1661
1030.000000	51.783	-156.0635
1044.000000	51.752	-155.3678
1060.000000	51.796	-153.6216
1075.000000	51.794	-151.8879
1090.000000	51.932	-150.9509
1106.000000	52.182	-150.6659
1120.000000	52.305	-150.7635
1138.000000	52.245	-151.6559
1150.000000	52.192	-151.9569
1172.000000	52.304	-151.0744
1180.000000	52.391	-150.4753
1206.000000	52.380	-150.6561
1220.000000	52.344	-151.0354
1241.000000	52.351	-149.8648
1250.000000	52.293	-149.1027
1265.000000	52.224	-147.7104
1280.000000	52.236	-146.1195
1315.000000	52.306	-144.2346
1320.000000	52.314	-144.1872
1340.000000	52.271	-144.0923
1360.000000	52.092	-143.6402
1380.000000	52.018	-142.4079
1400.000000	52.037	-141.3515
1430.000000	52.289	-140.3129
1450.000000	52.454	-138.9098
1475.000000	52.638	-137.7043
1500.000000	52.727	-137.0752
1525.000000	52.758	-136.9039
1550.000000	52.818	-136.5927
1575.000000	52.990	-135.7723
1600.000000	53.223	-134.6702
1625.000000	53.389	-133.6791
1650.000000	53.496	-132.3223
1675.000000	53.507	-131.8623
1700.000000	53.514	-132.2441
1725.000000	53.631	-131.9736
1750.000000	53.813	-130.8601
1775.000000	53.893	-129.8922
1800.000000	53.975	-128.9852
1825.000000	54.119	-128.6354
1850.000000	54.217	-128.3013
1875.000000	54.357	-127.4618
1900.000000	54.523	-126.4495
1925.000000	54.557	-125.8214
1950.000000	54.526	-125.3372
1975.000000	54.649	-124.5032
2000.000000	54.883	-123.9015
2030.000000	55.027	-123.6684
2060.000000	55.066	-122.7694
2090.000000	55.240	-121.5653
2120.000000	55.459	-120.8744
2140.000000	55.615	-120.6344
2180.000000	55.853	-119.7396
2200.000000	55.980	-119.4773
2240.000000	56.264	-119.0739
2270.000000	56.405	-118.8066
2300.000000	56.549	-118.5201
2330.000000	56.780	-118.4161
2360.000000	57.026	-118.7529
2400.000000	57.273	-118.8181
2430.000000	57.455	-118.3170
2470.000000	57.701	-118.2792
2500.000000	57.880	-118.6201
2540.000000	58.146	-118.7676
2580.000000	58.369	-118.5012
2620.000000	58.554	-118.4446
2650.000000	58.742	-119.1745
2690.000000	59.028	-120.4543
2720.000000	59.196	-121.1533
2760.000000	59.402	-121.9183
2800.000000	59.649	-122.6110
2850.000000	59.906	-123.7581
2900.000000	60.104	-125.0473
2950.000000	60.360	-126.7488
3000.000000	60.582	-129.3462
3040.000000	60.717	-131.3061
3070.000000	60.776	-132.5327
3110.000000	60.827	-134.1860
3150.000000	60.874	-135.8866
3200.000000	60.880	-138.0418
3250.000000	60.814	-140.3680
3300.000000	60.680	-142.5619
3350.000000	60.521	-144.2784
3400.000000	60.354	-145.8464
3450.000000	60.199	-147.2947
3500.000000	60.066	-148.0765
3550.000000	59.913	-148.8425
3600.000000	59.669	-149.5548
3650.000000	59.391	-149.9839
3700.000000	59.185	-150.1911
3750.000000	59.024	-150.4682
3820.000000	58.792	-150.2490
3870.000000	58.595	-149.7647
3950.000000	58.274	-148.7143
4000.000000	58.119	-148.0979
4060.000000	58.028	-147.7757
4120.000000	57.919	-147.2332
4180.000000	57.765	-146.5392
4250.000000	57.670	-145.5156
4310.000000	57.590	-144.4911
4370.000000	57.500	-143.6118
4440.000000	57.414	-142.5870
4500.000000	57.327	-141.6274
4550.000000	57.270	-140.9032
4620.000000	57.145	-139.8820
4680.000000	57.067	-138.9365
4750.000000	57.039	-137.9748
4820.000000	56.995	-136.8243
4870.000000	56.962	-135.7582
4940.000000	56.917	-133.9235
5000.000000	56.922	-132.5037
5080.000000	56.920	-131.1527
5150.000000	56.940	-129.7682
5220.000000	57.025	-127.9311
5300.000000	57.096	-125.9718
5380.000000	57.150	-124.3076
5450.000000	57.254	-122.9290
5520.000000	57.384	-121.2980
5600.000000	57.537	-119.1020
5700.000000	57.801	-116.1894
5800.000000	58.224	-113.2191
5900.000000	58.850	-110.2318
6000.000000	59.712	-108.3992
6080.000000	60.538	-107.3989
6150.000000	61.333	-107.1592
6220.000000	62.185	-108.1371
6300.000000	63.140	-111.1909
6400.000000	64.119	-117.5142
6500.000000	64.673	-125.8430
6600.000000	64.747	-134.8227
6700.000000	64.439	-142.4938
6800.000000	63.924	-147.9241
6900.000000	63.425	-151.6040
7000.000000	63.041	-153.9892
7100.000000	62.783	-155.7246
7200.000000	62.598	-157.0171
7300.000000	62.517	-157.8972
7400.000000	62.530	-158.7258
7500.000000	62.614	-159.9180
7620.000000	62.785	-161.9072
7750.000000	63.000	-164.6221
7880.000000	63.206	-168.1505
8000.000000	63.357	-172.7595
8120.000000	63.429	-178.4538
8250.000000	63.268	174.5765
8380.000000	62.802	167.3224
8500.000000	62.166	161.0716
8620.000000	61.359	155.7936
8750.000000	60.292	151.5203
8850.000000	59.401	149.2028
9000.000000	58.104	147.3635
9120.000000	57.103	146.9012
9250.000000	56.087	147.1952
9380.000000	55.205	148.1203
9500.000000	54.501	149.4511
9620.000000	53.888	151.4282
9750.000000	53.286	153.6751
9880.000000	52.673	155.9163
10000.000000	52.081	158.5559
10150.000000	51.481	161.8319
10300.000000	51.080	164.8080
10440.000000	50.851	167.6779
10600.000000	50.672	170.5892
10750.000000	50.523	172.5345
10900.000000	50.392	173.6265
11060.000000	50.274	175.5700
11200.000000	50.200	178.0641
11380.000000	50.259	-179.0486
11500.000000	50.383	-177.7853
11720.000000	50.808	-177.1959
11800.000000	51.022	-177.5987
12060.000000	51.440	178.8978
12200.000000	51.381	176.1708
12410.000000	50.921	172.6972
12500.000000	50.663	171.9677
12650.000000	50.180	171.8496
12800.000000	49.744	172.7334
13150.000000	49.574	179.3669
13200.000000	49.651	-179.5338
13400.000000	50.297	-175.0385
13600.000000	51.445	-171.6944
13800.000000	53.103	-172.0140
14000.000000	55.094	-176.8862
14300.000000	57.787	164.6079
14500.000000	58.617	144.3562
14750.000000	58.152	117.1189
15000.000000	56.380	95.8722
15250.000000	54.112	81.7881
15500.000000	51.808	73.4867
15750.000000	49.750	69.4155
16000.000000	48.157	68.1016
16250.000000	47.018	68.4517
16500.000000	46.232	69.7765
16750.000000	45.869	71.4420
17000.000000	46.019	72.1026
17250.000000	46.531	71.8861
17500.000000	47.541	68.9293
17750.000000	49.112	62.1629
18000.000000	50.907	47.7078
18250.000000	52.139	16.8762
18500.000000	51.920	-90.2687
18750.000000	49.916	-26.5358
19000.000000	46.377	-173.2783
19250.000000	42.144	29.1846
19500.000000	39.588	-151.8105
19750.000000	39.007	-128.0195
20000.000000	38.701	-86.8047
