* Measurement data measured by REW V5.20.13
* Source: EXCL: Mic in at rear panel (Pink)(Realtek(R) Audio), MICROPHONE (마스), L, volume: 1.000
* Format: 256k Log Swept Sine, 1 sweep at -12.0 dBFS with no timing reference
* Dated: 2022. 12. 30 오후 6:42:20
* REW Settings:
*  C-weighting compensation: Off
*  Target level: 75.0 dB
* Note: 
* Measurement: 67
* Smoothing: 1/24 octave
* Frequency Step: 1/48 octave
* Start Frequency: 20.300 Hz
*
* Freq(Hz)	SPL(dB)	Phase(degrees)
20.299999	76.489	178.0008
20.600000	76.431	177.0015
20.900000	76.312	175.6587
21.200001	76.218	175.5226
21.400000	76.224	175.8934
21.799999	76.429	176.6900
22.000000	76.606	176.6337
22.400000	76.971	175.0376
22.700001	77.136	172.7571
23.000000	77.141	170.1524
23.299999	77.001	167.9158
23.600000	76.774	166.4784
24.000000	76.475	165.9821
24.299999	76.358	166.2712
24.700001	76.378	166.6294
25.000000	76.465	166.3856
25.400000	76.558	165.3190
25.799999	76.553	163.9967
26.200001	76.469	163.0913
26.500000	76.402	162.8216
26.900000	76.354	162.8322
27.200001	76.355	162.8948
27.600000	76.379	162.8586
28.000000	76.396	162.7103
28.500000	76.400	162.5859
29.000000	76.411	162.5756
29.500000	76.442	162.4728
30.000000	76.469	162.1272
30.400000	76.479	161.6752
30.700001	76.476	161.2278
31.100000	76.453	160.4585
31.500000	76.391	159.5240
32.000000	76.237	158.3846
32.500000	76.030	157.7014
33.000000	75.861	157.5670
33.500000	75.797	157.5123
34.000000	75.803	156.9865
34.500000	75.794	155.9683
35.000000	75.739	154.8232
35.500000	75.660	153.8053
36.000000	75.571	152.9097
36.500000	75.462	152.1931
37.000000	75.346	151.8638
37.500000	75.274	151.9099
38.200001	75.278	151.8159
38.700001	75.277	151.2770
39.500000	75.152	150.5038
40.000000	75.068	150.4563
40.599998	75.029	150.3622
41.200001	74.984	149.8307
41.799999	74.882	149.2874
42.500000	74.774	148.9969
43.099998	74.731	148.5043
43.700001	74.648	147.6478
44.400002	74.469	146.9864
45.000000	74.350	146.9443
45.500000	74.309	146.8286
46.200001	74.256	146.1758
46.799999	74.150	145.5397
47.500000	74.004	145.1715
48.200001	73.892	144.9672
48.700001	73.823	144.7596
49.400002	73.721	144.4105
50.000000	73.627	144.1110
50.799999	73.498	143.7385
51.500000	73.393	143.4399
52.200001	73.300	143.0553
53.000000	73.179	142.4602
53.799999	73.029	141.8706
54.500000	72.876	141.4103
55.200001	72.694	141.1068
56.000000	72.486	141.2157
57.000000	72.325	141.5835
58.000000	72.193	141.4772
59.000000	72.028	141.4572
60.000000	71.891	141.3557
60.799999	71.748	141.1139
61.500000	71.599	141.0585
62.200001	71.456	141.1377
63.000000	71.304	141.2322
64.000000	71.118	141.2693
65.000000	70.916	141.2446
66.000000	70.712	141.4502
67.000000	70.564	141.6758
68.000000	70.430	141.6838
69.000000	70.297	141.7325
70.000000	70.167	141.8154
71.000000	70.038	142.1468
72.000000	69.953	142.5580
73.000000	69.866	142.7667
74.000000	69.746	143.0751
75.000000	69.628	143.5545
76.199997	69.504	144.0954
77.500000	69.352	144.5015
78.800003	69.179	144.9826
80.000000	69.029	145.3442
81.199997	68.879	145.6097
82.500000	68.742	145.9067
83.800003	68.651	146.0281
85.000000	68.556	146.1507
86.199997	68.491	146.6814
87.500000	68.470	147.2241
88.500000	68.426	147.6407
90.000000	68.336	148.4450
91.199997	68.241	149.0217
92.500000	68.122	149.5595
93.800003	68.000	149.9250
95.000000	67.904	150.2340
96.199997	67.848	150.3780
97.500000	67.778	150.3917
98.800003	67.714	150.6241
100.000000	67.674	150.7888
101.500000	67.597	150.9377
103.000000	67.510	151.2280
104.400002	67.444	151.4049
106.000000	67.335	151.6477
107.500000	67.229	152.1124
109.000000	67.126	152.6910
110.599998	67.030	153.2929
112.000000	66.971	153.6249
113.800003	66.918	153.8159
115.000000	66.904	153.9854
117.199997	66.930	154.6633
118.000000	66.961	154.9243
120.599998	66.887	154.9147
122.000000	66.708	155.3634
124.099998	66.549	156.3039
125.000000	66.519	156.5272
126.500000	66.470	156.7679
128.000000	66.415	157.1845
131.500000	66.316	157.9912
132.000000	66.296	158.0326
134.000000	66.217	158.1808
136.000000	66.175	158.5403
138.000000	66.182	159.1789
140.000000	66.197	159.7995
143.000000	66.119	160.5932
145.000000	66.033	161.1564
147.500000	65.931	161.6844
150.000000	65.864	161.8970
152.500000	65.844	161.7509
155.000000	65.822	161.8879
157.500000	65.806	162.5179
160.000000	65.770	162.8986
162.500000	65.708	162.8739
165.000000	65.690	163.0694
167.500000	65.726	163.3670
170.000000	65.707	163.5946
172.500000	65.613	163.8929
175.000000	65.558	164.2887
177.500000	65.549	164.5419
180.000000	65.535	164.9572
182.500000	65.521	165.3408
185.000000	65.448	165.5119
187.500000	65.338	165.7355
190.000000	65.237	165.8461
192.500000	65.170	165.8785
195.000000	65.173	166.0963
197.500000	65.238	166.4920
200.000000	65.274	166.9514
203.000000	65.214	167.5754
206.000000	65.128	167.9621
209.000000	65.082	168.2195
212.000000	65.096	168.5629
214.000000	65.086	168.6497
218.000000	64.991	168.7901
220.000000	64.963	169.0873
224.000000	64.954	170.0164
227.000000	64.930	170.4389
230.000000	64.898	170.6780
233.000000	64.865	171.0109
236.000000	64.845	171.1169
240.000000	64.859	170.7053
243.000000	64.894	170.7277
247.000000	64.826	171.1132
250.000000	64.731	171.4194
254.000000	64.673	171.7781
258.000000	64.663	172.0550
262.000000	64.624	172.1432
265.000000	64.573	172.2648
269.000000	64.508	172.5917
272.000000	64.501	172.8980
276.000000	64.491	173.6423
280.000000	64.438	174.4152
285.000000	64.385	174.6387
290.000000	64.310	175.0435
295.000000	64.269	175.6468
300.000000	64.220	176.4420
304.000000	64.230	176.9789
307.000000	64.245	177.4707
311.000000	64.218	178.1234
315.000000	64.195	178.6798
320.000000	64.191	179.2738
325.000000	64.170	179.6625
330.000000	64.183	-179.5684
335.000000	64.240	-178.9044
340.000000	64.249	-178.4491
345.000000	64.255	-177.8604
350.000000	64.297	-177.6370
355.000000	64.363	-177.3066
360.000000	64.410	-176.6890
365.000000	64.432	-176.3583
370.000000	64.479	-176.1833
375.000000	64.519	-175.9377
382.000000	64.546	-175.4612
387.000000	64.572	-174.7865
395.000000	64.665	-174.5087
400.000000	64.697	-174.7372
406.000000	64.729	-174.5662
412.000000	64.718	-174.4392
418.000000	64.682	-174.6329
425.000000	64.660	-174.8808
431.000000	64.670	-174.8342
437.000000	64.679	-174.7167
444.000000	64.617	-174.6128
450.000000	64.563	-174.5515
455.000000	64.542	-174.5289
462.000000	64.523	-174.1953
468.000000	64.483	-173.7497
475.000000	64.401	-173.3589
482.000000	64.386	-172.8942
487.000000	64.384	-172.4955
494.000000	64.343	-172.1302
500.000000	64.330	-171.8749
508.000000	64.341	-171.2700
515.000000	64.299	-170.6319
522.000000	64.258	-170.1322
530.000000	64.257	-169.4072
538.000000	64.298	-168.9289
545.000000	64.354	-168.8414
552.000000	64.412	-168.6193
560.000000	64.437	-167.9926
570.000000	64.481	-167.4038
580.000000	64.486	-167.1049
590.000000	64.499	-166.8381
600.000000	64.504	-166.4835
608.000000	64.510	-166.0691
615.000000	64.476	-165.7734
622.000000	64.415	-165.5249
630.000000	64.393	-165.2413
640.000000	64.412	-164.9723
650.000000	64.372	-164.2724
660.000000	64.333	-163.1451
670.000000	64.354	-162.1960
680.000000	64.383	-161.3641
690.000000	64.462	-160.4941
700.000000	64.551	-159.8154
710.000000	64.613	-159.3650
720.000000	64.671	-158.9995
730.000000	64.745	-158.7494
740.000000	64.855	-158.4929
750.000000	64.952	-158.3804
762.000000	65.032	-158.6160
775.000000	65.100	-158.7178
788.000000	65.120	-158.8266
800.000000	65.147	-158.9338
812.000000	65.140	-159.2740
825.000000	65.058	-159.7691
838.000000	64.967	-160.1301
850.000000	64.904	-160.1090
862.000000	64.854	-159.6605
875.000000	64.795	-159.1886
885.000000	64.706	-158.7886
900.000000	64.553	-157.9607
912.000000	64.466	-157.4047
925.000000	64.430	-156.8957
938.000000	64.397	-156.2200
950.000000	64.335	-155.5771
962.000000	64.282	-154.7343
975.000000	64.233	-153.7598
988.000000	64.228	-152.9198
1000.000000	64.263	-151.9310
1015.000000	64.254	-150.3925
1030.000000	64.270	-149.2043
1044.000000	64.334	-148.2031
1060.000000	64.376	-147.0616
1075.000000	64.478	-146.0022
1090.000000	64.616	-145.1179
1106.000000	64.729	-144.3365
1120.000000	64.811	-143.7495
1138.000000	64.897	-143.3195
1150.000000	64.973	-143.1491
1172.000000	65.127	-142.5255
1180.000000	65.155	-142.2513
1206.000000	65.238	-141.3478
1220.000000	65.313	-140.8882
1241.000000	65.390	-140.3489
1250.000000	65.420	-140.0753
1265.000000	65.469	-139.5105
1280.000000	65.511	-139.0917
1315.000000	65.586	-138.7845
1320.000000	65.592	-138.7109
1340.000000	65.621	-138.2158
1360.000000	65.667	-137.5359
1380.000000	65.732	-136.6710
1400.000000	65.784	-135.7557
1430.000000	65.917	-134.4678
1450.000000	66.068	-133.4960
1475.000000	66.262	-132.5251
1500.000000	66.442	-131.9782
1525.000000	66.592	-131.5185
1550.000000	66.738	-131.2132
1575.000000	66.858	-130.8989
1600.000000	66.964	-130.3259
1625.000000	67.087	-129.7236
1650.000000	67.201	-129.2797
1675.000000	67.274	-128.7120
1700.000000	67.322	-128.0909
1725.000000	67.417	-127.4879
1750.000000	67.528	-126.6766
1775.000000	67.652	-125.8138
1800.000000	67.788	-125.1473
1825.000000	67.944	-124.4893
1850.000000	68.106	-123.8858
1875.000000	68.271	-123.3554
1900.000000	68.442	-122.8074
1925.000000	68.598	-122.2319
1950.000000	68.737	-121.7005
1975.000000	68.876	-121.2258
2000.000000	69.040	-120.8292
2030.000000	69.264	-120.4135
2060.000000	69.495	-119.8990
2090.000000	69.723	-119.3695
2120.000000	69.959	-119.0056
2140.000000	70.120	-118.8261
2180.000000	70.440	-118.4774
2200.000000	70.602	-118.2895
2240.000000	70.957	-117.9555
2270.000000	71.241	-117.7832
2300.000000	71.514	-117.7426
2330.000000	71.783	-117.8589
2360.000000	72.051	-118.1871
2400.000000	72.406	-119.0221
2430.000000	72.674	-119.9028
2470.000000	73.040	-121.3845
2500.000000	73.298	-122.6389
2540.000000	73.594	-124.3862
2580.000000	73.855	-126.2296
2620.000000	74.103	-128.2352
2650.000000	74.276	-129.8677
2690.000000	74.472	-132.1186
2720.000000	74.587	-133.8778
2760.000000	74.724	-136.2871
2800.000000	74.851	-138.6852
2850.000000	74.962	-141.6696
2900.000000	75.024	-144.7369
2950.000000	75.060	-147.8611
3000.000000	75.035	-151.1186
3040.000000	74.947	-153.7538
3070.000000	74.842	-155.6661
3110.000000	74.670	-158.0922
3150.000000	74.470	-160.3459
3200.000000	74.183	-162.9000
3250.000000	73.840	-165.0544
3300.000000	73.452	-166.7412
3350.000000	73.062	-168.1397
3400.000000	72.677	-169.2555
3450.000000	72.288	-169.8486
3500.000000	71.921	-170.0278
3550.000000	71.581	-170.0508
3600.000000	71.269	-169.8863
3650.000000	70.985	-169.5101
3700.000000	70.719	-168.9702
3750.000000	70.463	-168.2445
3820.000000	70.123	-167.0948
3870.000000	69.914	-166.0538
3950.000000	69.634	-164.2671
4000.000000	69.498	-163.1630
4060.000000	69.342	-161.8013
4120.000000	69.214	-160.4821
4180.000000	69.119	-159.2683
4250.000000	69.036	-157.9190
4310.000000	68.965	-156.7928
4370.000000	68.890	-155.6952
4440.000000	68.813	-154.5293
4500.000000	68.750	-153.5123
4550.000000	68.698	-152.5799
4620.000000	68.643	-151.3091
4680.000000	68.612	-150.2449
4750.000000	68.570	-148.8319
4820.000000	68.545	-147.5608
4870.000000	68.544	-146.7484
4940.000000	68.549	-145.4857
5000.000000	68.574	-144.2455
5080.000000	68.647	-142.6668
5150.000000	68.731	-141.4779
5220.000000	68.822	-140.2982
5300.000000	68.948	-139.0131
5380.000000	69.097	-137.7661
5450.000000	69.220	-136.7108
5520.000000	69.361	-135.7156
5600.000000	69.568	-134.5221
5700.000000	69.878	-132.9166
5800.000000	70.304	-131.6295
5900.000000	70.853	-131.0446
6000.000000	71.463	-131.4043
6080.000000	71.964	-132.4570
6150.000000	72.399	-133.9422
6220.000000	72.805	-135.9614
6300.000000	73.189	-138.9673
6400.000000	73.504	-143.4851
6500.000000	73.630	-148.3626
6600.000000	73.582	-153.0143
6700.000000	73.397	-156.9459
6800.000000	73.151	-160.0917
6900.000000	72.903	-162.4714
7000.000000	72.700	-164.2092
7100.000000	72.570	-165.5831
7200.000000	72.505	-166.8011
7300.000000	72.495	-168.1281
7400.000000	72.526	-169.7390
7500.000000	72.580	-171.6930
7620.000000	72.694	-174.5014
7750.000000	72.815	-178.2147
7880.000000	72.825	177.2739
8000.000000	72.714	172.4731
8120.000000	72.465	167.0716
8250.000000	72.012	160.9117
8380.000000	71.342	154.9822
8500.000000	70.544	150.2799
8620.000000	69.590	146.7240
8750.000000	68.473	144.2320
8850.000000	67.609	143.1381
9000.000000	66.329	142.6903
9120.000000	65.373	143.2173
9250.000000	64.442	144.4872
9380.000000	63.563	146.2365
9500.000000	62.824	148.1732
9620.000000	62.182	150.4982
9750.000000	61.550	153.3873
9880.000000	60.966	156.2371
10000.000000	60.477	158.7617
10150.000000	59.964	161.7729
10300.000000	59.591	164.9653
10440.000000	59.289	168.0562
10600.000000	58.940	171.3860
10750.000000	58.664	174.4342
10900.000000	58.482	177.9198
11060.000000	58.423	-178.0330
11200.000000	58.481	-174.5994
11380.000000	58.789	-170.7313
11500.000000	59.129	-169.1297
11720.000000	59.818	-168.9174
11800.000000	60.050	-169.7206
12060.000000	60.448	-174.3266
12200.000000	60.357	-176.8885
12410.000000	59.888	-179.6219
12500.000000	59.607	179.8754
12650.000000	59.136	-179.7578
12800.000000	58.768	-177.9349
13150.000000	58.824	-170.4236
13200.000000	58.949	-169.2251
13400.000000	59.759	-164.9359
13600.000000	61.098	-162.6895
13800.000000	62.917	-163.5998
14000.000000	64.952	-169.3250
14300.000000	67.424	169.5509
14500.000000	68.010	148.5939
14750.000000	67.276	122.4135
15000.000000	65.405	102.5798
15250.000000	63.059	89.7343
15500.000000	60.729	82.4810
15750.000000	58.698	79.2479
16000.000000	57.139	78.3075
16250.000000	55.985	79.0319
16500.000000	55.283	80.5809
16750.000000	55.045	81.9495
17000.000000	55.330	82.4853
17250.000000	56.173	80.7695
17500.000000	57.407	75.8563
17750.000000	58.934	66.7110
18000.000000	60.483	51.1016
18250.000000	61.385	27.2522
18500.000000	61.100	-0.9084
18750.000000	59.532	-25.3930
19000.000000	57.095	-41.6235
19250.000000	54.610	-51.8775
19500.000000	52.665	-63.7669
19750.000000	51.065	-96.1701
20000.000000	49.600	-151.4205
