* Measurement data measured by REW V5.20.13
* Source: EXCL: Mic in at rear panel (Pink)(Realtek(R) Audio), MICROPHONE (마스), L, volume: 1.000
* Format: 256k Log Swept Sine, 1 sweep at -12.0 dBFS with no timing reference
* Dated: 2022. 12. 24 오후 9:29:20
* REW Settings:
*  C-weighting compensation: Off
*  Target level: 75.0 dB
* Note: 
* Measurement: R
* Smoothing: 1/24 octave
* Frequency Step: 1/48 octave
* Start Frequency: 20.300 Hz
*
* Freq(Hz)	SPL(dB)	Phase(degrees)
20.299999	89.863	157.8568
20.600000	89.850	157.7110
20.900000	89.820	157.4507
21.200001	89.786	157.2022
21.400000	89.761	157.0395
21.799999	89.708	156.7025
22.000000	89.680	156.5221
22.400000	89.623	156.1362
22.700001	89.582	155.8213
23.000000	89.541	155.4801
23.299999	89.501	155.1148
23.600000	89.462	154.7323
24.000000	89.415	154.2105
24.299999	89.382	153.8218
24.700001	89.343	153.3158
25.000000	89.316	152.9466
25.400000	89.283	152.4664
25.799999	89.252	151.9993
26.200001	89.222	151.5512
26.500000	89.199	151.2346
26.900000	89.165	150.8459
27.200001	89.137	150.5800
27.600000	89.099	150.2523
28.000000	89.059	149.9425
28.500000	89.005	149.5689
29.000000	88.945	149.2130
29.500000	88.882	148.8792
30.000000	88.822	148.5471
30.400000	88.779	148.2509
30.700001	88.748	147.9957
31.100000	88.705	147.6058
31.500000	88.656	147.1753
32.000000	88.585	146.6336
32.500000	88.508	146.1476
33.000000	88.436	145.7343
33.500000	88.378	145.3610
34.000000	88.332	144.9821
34.500000	88.289	144.5816
35.000000	88.241	144.1866
35.500000	88.191	143.8386
36.000000	88.146	143.5323
36.500000	88.106	143.2119
37.000000	88.061	142.8431
37.500000	88.002	142.4729
38.200001	87.902	142.0835
38.700001	87.837	141.8801
39.500000	87.749	141.4733
40.000000	87.693	141.1464
40.599998	87.621	140.7393
41.200001	87.547	140.3330
41.799999	87.472	139.9427
42.500000	87.390	139.5766
43.099998	87.339	139.2980
43.700001	87.296	138.9431
44.400002	87.229	138.5074
45.000000	87.168	138.2518
45.500000	87.131	138.0523
46.200001	87.081	137.6050
46.799999	87.008	137.1521
47.500000	86.900	136.8208
48.200001	86.811	136.6353
48.700001	86.759	136.4806
49.400002	86.691	136.2436
50.000000	86.644	136.0212
50.799999	86.588	135.5754
51.500000	86.520	135.1669
52.200001	86.454	134.9047
53.000000	86.398	134.6021
53.799999	86.326	134.2308
54.500000	86.247	134.0371
55.200001	86.175	133.9286
56.000000	86.091	133.7647
57.000000	85.965	133.6270
58.000000	85.857	133.6095
59.000000	85.788	133.3643
60.000000	85.698	132.7131
60.799999	85.585	132.2427
61.500000	85.487	132.0571
62.200001	85.419	131.9766
63.000000	85.367	131.8229
64.000000	85.302	131.5434
65.000000	85.237	131.3234
66.000000	85.180	131.0508
67.000000	85.105	130.7083
68.000000	85.015	130.4367
69.000000	84.923	130.2054
70.000000	84.835	130.0586
71.000000	84.775	129.9401
72.000000	84.730	129.6611
73.000000	84.668	129.3026
74.000000	84.590	129.0421
75.000000	84.512	128.8717
76.199997	84.417	128.7031
77.500000	84.316	128.5274
78.800003	84.218	128.1980
80.000000	84.112	127.8664
81.199997	84.014	127.6078
82.500000	83.928	127.3131
83.800003	83.854	127.0870
85.000000	83.797	126.8840
86.199997	83.725	126.6944
87.500000	83.643	126.6101
88.500000	83.577	126.4937
90.000000	83.449	126.3591
91.199997	83.353	126.2998
92.500000	83.244	126.1781
93.800003	83.123	126.1581
95.000000	83.015	126.2124
96.199997	82.920	126.3592
97.500000	82.874	126.4303
98.800003	82.852	125.9574
100.000000	82.779	125.3305
101.500000	82.634	124.9400
103.000000	82.477	125.1699
104.400002	82.394	125.7810
106.000000	82.397	125.7585
107.500000	82.328	125.0701
109.000000	82.257	124.8300
110.599998	82.235	124.8506
112.000000	82.187	125.0949
113.800003	82.051	125.3828
115.000000	81.911	125.0466
117.199997	81.612	122.2130
118.000000	81.466	120.5597
120.599998	80.938	120.0457
122.000000	81.182	122.2186
124.099998	81.592	123.3816
125.000000	81.641	123.7116
126.500000	81.608	124.2505
128.000000	81.509	124.4288
131.500000	81.319	123.8726
132.000000	81.314	123.8323
134.000000	81.299	123.6768
136.000000	81.206	123.5581
138.000000	81.079	123.5128
140.000000	80.996	123.5026
143.000000	80.981	123.6563
145.000000	80.948	123.7661
147.500000	80.870	123.8344
150.000000	80.779	123.6638
152.500000	80.698	123.6034
155.000000	80.629	123.6252
157.500000	80.566	123.6407
160.000000	80.496	123.5747
162.500000	80.419	123.4998
165.000000	80.352	123.4069
167.500000	80.304	123.2805
170.000000	80.264	123.2349
172.500000	80.231	123.2886
175.000000	80.202	123.2001
177.500000	80.152	122.9916
180.000000	80.091	122.9397
182.500000	80.035	122.9651
185.000000	79.974	122.8895
187.500000	79.914	122.7623
190.000000	79.866	122.7094
192.500000	79.828	122.7575
195.000000	79.786	122.7135
197.500000	79.727	122.5677
200.000000	79.672	122.4333
203.000000	79.618	122.3218
206.000000	79.570	122.2974
209.000000	79.526	122.3260
212.000000	79.484	122.3378
214.000000	79.454	122.3365
218.000000	79.399	122.3612
220.000000	79.376	122.3719
224.000000	79.331	122.3537
227.000000	79.302	122.3037
230.000000	79.276	122.2937
233.000000	79.243	122.2925
236.000000	79.203	122.2859
240.000000	79.160	122.2612
243.000000	79.127	122.2217
247.000000	79.081	122.2129
250.000000	79.057	122.2425
254.000000	79.030	122.2341
258.000000	78.998	122.2076
262.000000	78.975	122.2661
265.000000	78.961	122.3253
269.000000	78.938	122.3536
272.000000	78.925	122.3656
276.000000	78.916	122.3648
280.000000	78.909	122.3714
285.000000	78.891	122.3998
290.000000	78.880	122.4545
295.000000	78.896	122.6065
300.000000	78.905	122.6401
304.000000	78.918	122.6299
307.000000	78.933	122.6273
311.000000	78.952	122.5650
315.000000	78.963	122.4905
320.000000	78.976	122.4327
325.000000	79.001	122.3390
330.000000	79.023	122.2280
335.000000	79.046	122.0981
340.000000	79.074	122.0008
345.000000	79.090	121.9757
350.000000	79.103	121.9410
355.000000	79.116	121.9040
360.000000	79.124	121.8606
365.000000	79.137	121.8239
370.000000	79.163	121.7910
375.000000	79.198	121.7289
382.000000	79.249	121.6865
387.000000	79.273	121.6771
395.000000	79.309	121.6346
400.000000	79.340	121.5051
406.000000	79.382	121.3629
412.000000	79.422	121.3351
418.000000	79.468	121.2988
425.000000	79.533	121.2099
431.000000	79.588	121.1521
437.000000	79.647	121.0990
444.000000	79.716	120.9843
450.000000	79.766	120.9178
455.000000	79.811	120.8548
462.000000	79.883	120.7165
468.000000	79.955	120.6485
475.000000	80.043	120.5806
482.000000	80.125	120.4905
487.000000	80.178	120.4123
494.000000	80.253	120.2900
500.000000	80.322	120.2105
508.000000	80.418	120.1312
515.000000	80.509	120.0237
522.000000	80.604	119.9163
530.000000	80.710	119.7649
538.000000	80.816	119.5820
545.000000	80.910	119.4693
552.000000	81.005	119.3715
560.000000	81.114	119.2276
570.000000	81.256	119.0078
580.000000	81.404	118.7505
590.000000	81.556	118.5182
600.000000	81.702	118.3029
608.000000	81.818	118.1013
615.000000	81.923	117.9128
622.000000	82.030	117.7225
630.000000	82.154	117.4844
640.000000	82.314	117.1761
650.000000	82.476	116.9107
660.000000	82.639	116.6094
670.000000	82.803	116.2699
680.000000	82.962	115.9168
690.000000	83.124	115.5325
700.000000	83.289	115.1149
710.000000	83.456	114.6856
720.000000	83.625	114.2615
730.000000	83.793	113.8191
740.000000	83.959	113.3428
750.000000	84.127	112.8387
762.000000	84.331	112.1886
775.000000	84.548	111.4408
788.000000	84.762	110.6709
800.000000	84.960	109.9238
812.000000	85.160	109.1256
825.000000	85.374	108.2181
838.000000	85.585	107.2779
850.000000	85.774	106.3873
862.000000	85.962	105.4608
875.000000	86.164	104.3797
885.000000	86.313	103.5135
900.000000	86.529	102.1599
912.000000	86.698	101.0464
925.000000	86.873	99.8194
938.000000	87.038	98.5418
950.000000	87.181	97.3348
962.000000	87.319	96.1249
975.000000	87.462	94.7863
988.000000	87.597	93.4116
1000.000000	87.711	92.1122
1015.000000	87.832	90.5010
1030.000000	87.940	88.8981
1044.000000	88.034	87.3914
1060.000000	88.128	85.6664
1075.000000	88.199	84.0640
1090.000000	88.259	82.4850
1106.000000	88.318	80.8512
1120.000000	88.362	79.4477
1138.000000	88.405	77.6709
1150.000000	88.425	76.5265
1172.000000	88.442	74.5155
1180.000000	88.443	73.8044
1206.000000	88.429	71.6046
1220.000000	88.414	70.4989
1241.000000	88.385	68.9470
1250.000000	88.370	68.3189
1265.000000	88.339	67.3098
1280.000000	88.303	66.3586
1315.000000	88.211	64.3988
1320.000000	88.197	64.1451
1340.000000	88.138	63.1900
1360.000000	88.072	62.3297
1380.000000	88.006	61.5647
1400.000000	87.947	60.9056
1430.000000	87.868	60.0783
1450.000000	87.818	59.5925
1475.000000	87.761	59.0632
1500.000000	87.712	58.6349
1525.000000	87.672	58.3177
1550.000000	87.637	58.0731
1575.000000	87.610	57.8748
1600.000000	87.594	57.7385
1625.000000	87.585	57.6675
1650.000000	87.583	57.6371
1675.000000	87.589	57.6424
1700.000000	87.603	57.6745
1725.000000	87.628	57.7286
1750.000000	87.658	57.8082
1775.000000	87.698	57.9032
1800.000000	87.750	58.0139
1825.000000	87.811	58.1335
1850.000000	87.878	58.2453
1875.000000	87.952	58.3337
1900.000000	88.032	58.4104
1925.000000	88.119	58.4829
1950.000000	88.215	58.5557
1975.000000	88.319	58.6038
2000.000000	88.431	58.6208
2030.000000	88.575	58.5957
2060.000000	88.727	58.5193
2090.000000	88.887	58.4055
2120.000000	89.056	58.2280
2140.000000	89.172	58.0640
2180.000000	89.416	57.6327
2200.000000	89.539	57.3616
2240.000000	89.789	56.6850
2270.000000	89.980	56.0767
2300.000000	90.174	55.3698
2330.000000	90.368	54.5456
2360.000000	90.560	53.6041
2400.000000	90.807	52.1740
2430.000000	90.985	50.9665
2470.000000	91.208	49.1726
2500.000000	91.361	47.6924
2540.000000	91.539	45.5628
2580.000000	91.686	43.2717
2620.000000	91.797	40.8515
2650.000000	91.854	38.9796
2690.000000	91.890	36.4383
2720.000000	91.889	34.5211
2760.000000	91.851	31.9942
2800.000000	91.772	29.5493
2850.000000	91.617	26.6760
2900.000000	91.410	24.0653
2950.000000	91.160	21.7695
3000.000000	90.877	19.8463
3040.000000	90.637	18.5903
3070.000000	90.452	17.8150
3110.000000	90.206	16.9948
3150.000000	89.962	16.4008
3200.000000	89.669	15.9430
3250.000000	89.392	15.7628
3300.000000	89.136	15.8444
3350.000000	88.905	16.1441
3400.000000	88.706	16.6143
3450.000000	88.544	17.2428
3500.000000	88.418	17.9895
3550.000000	88.325	18.8213
3600.000000	88.263	19.6992
3650.000000	88.235	20.5981
3700.000000	88.242	21.4916
3750.000000	88.281	22.3567
3820.000000	88.376	23.4580
3870.000000	88.473	24.1469
3950.000000	88.676	25.0170
4000.000000	88.835	25.3723
4060.000000	89.056	25.5808
4120.000000	89.309	25.5033
4180.000000	89.589	25.0504
4250.000000	89.940	23.9412
4310.000000	90.235	22.3949
4370.000000	90.500	20.2172
4440.000000	90.732	16.8645
4500.000000	90.834	13.3891
4550.000000	90.833	10.1896
4620.000000	90.678	5.4973
4680.000000	90.396	1.5486
4750.000000	89.906	-2.6089
4820.000000	89.264	-5.9619
4870.000000	88.732	-7.7363
4940.000000	87.915	-9.2483
5000.000000	87.179	-9.5848
5080.000000	86.189	-8.6225
5150.000000	85.356	-6.4491
5220.000000	84.600	-3.0433
5300.000000	83.900	2.2665
5380.000000	83.474	8.7798
5450.000000	83.399	14.9808
5520.000000	83.644	21.0075
5600.000000	84.298	26.7198
5700.000000	85.474	30.5461
5800.000000	86.645	29.5554
5900.000000	87.395	24.4686
6000.000000	87.529	17.9202
6080.000000	87.245	13.4685
6150.000000	86.811	10.7967
6220.000000	86.290	9.3595
6300.000000	85.674	9.0584
6400.000000	84.971	10.2604
6500.000000	84.405	12.7003
6600.000000	83.997	15.9611
6700.000000	83.752	19.7331
6800.000000	83.673	23.7299
6900.000000	83.766	27.7432
7000.000000	84.028	31.6118
7100.000000	84.436	35.1713
7200.000000	84.981	38.2707
7300.000000	85.660	40.7385
7400.000000	86.464	42.3317
7500.000000	87.371	42.7540
7620.000000	88.558	41.2882
7750.000000	89.814	36.5987
7880.000000	90.726	28.3367
8000.000000	91.056	18.2829
8120.000000	90.788	7.8609
8250.000000	89.886	-1.1908
8380.000000	88.620	-6.1887
8500.000000	87.473	-7.5440
8620.000000	86.523	-7.5029
8750.000000	85.605	-6.7792
8850.000000	84.934	-5.5263
9000.000000	84.048	-2.4622
9120.000000	83.488	0.7124
9250.000000	83.045	4.5276
9380.000000	82.766	8.4592
9500.000000	82.640	12.0219
9620.000000	82.636	15.4161
9750.000000	82.762	18.7901
9880.000000	83.020	21.7498
10000.000000	83.376	23.9308
10150.000000	83.963	25.4460
10300.000000	84.621	25.1543
10440.000000	85.203	23.1516
10600.000000	85.726	18.8578
10750.000000	85.963	13.1578
10900.000000	85.862	6.5921
11060.000000	85.349	-0.0596
11200.000000	84.607	-4.5138
11380.000000	83.427	-7.4895
11500.000000	82.631	-7.9036
11720.000000	81.310	-6.7354
11800.000000	80.866	-5.8161
12060.000000	79.611	-1.1466
12200.000000	79.078	2.1001
12410.000000	78.444	7.3780
12500.000000	78.232	9.7090
12650.000000	77.955	13.6494
12800.000000	77.770	17.6935
13150.000000	77.885	27.5172
13200.000000	77.987	28.7084
13400.000000	78.488	32.1047
13600.000000	79.014	33.9251
13800.000000	79.592	34.6673
14000.000000	80.190	34.0171
14300.000000	81.040	31.0317
14500.000000	81.662	26.9394
14750.000000	81.977	17.5893
15000.000000	81.433	8.2224
15250.000000	80.414	2.5513
15500.000000	79.367	0.4977
15750.000000	78.624	1.0490
16000.000000	78.320	2.5417
16250.000000	78.435	3.2851
16500.000000	78.852	1.7401
16750.000000	79.327	-3.3619
17000.000000	79.506	-12.2422
17250.000000	79.103	-23.1415
17500.000000	78.083	-32.9649
17750.000000	76.660	-39.6306
18000.000000	75.132	-43.2595
18250.000000	73.709	-45.0994
18500.000000	72.441	-46.2894
18750.000000	71.273	-47.8922
19000.000000	70.012	-50.2502
19250.000000	68.409	-51.4669
19500.000000	66.515	-49.5021
19750.000000	64.697	-45.1746
20000.000000	63.452	-41.5284
