* Measurement data measured by REW V5.20.13
* Source: EXCL: Mic in at rear panel (Pink)(Realtek(R) Audio), MICROPHONE (마스), L, volume: 0.500
* Format: 256k Log Swept Sine, 1 sweep at -12.0 dBFS with no timing reference
* Dated: 2022. 10. 1 오후 4:01:51
* REW Settings:
*  C-weighting compensation: Off
*  Target level: 75.0 dB
* Note: 
* Measurement: R
* Smoothing: 1/24 octave
* Frequency Step: 1/48 octave
* Start Frequency: 20.300 Hz
*
* Freq(Hz)	SPL(dB)	Phase(degrees)
20.299999	75.002	-137.0226
20.600000	75.032	-137.3918
20.900000	75.086	-138.0690
21.200001	75.120	-138.7476
21.400000	75.129	-139.1656
21.799999	75.131	-139.8824
22.000000	75.132	-140.1725
22.400000	75.148	-140.6406
22.700001	75.182	-140.9843
23.000000	75.232	-141.4225
23.299999	75.285	-141.9914
23.600000	75.331	-142.6632
24.000000	75.371	-143.6095
24.299999	75.390	-144.2562
24.700001	75.417	-144.9724
25.000000	75.451	-145.4371
25.400000	75.518	-146.0784
25.799999	75.595	-146.8606
26.200001	75.654	-147.7724
26.500000	75.678	-148.4553
26.900000	75.684	-149.2407
27.200001	75.681	-149.6904
27.600000	75.685	-150.1327
28.000000	75.704	-150.5091
28.500000	75.739	-151.0259
29.000000	75.764	-151.5636
29.500000	75.783	-152.0006
30.000000	75.820	-152.3681
30.400000	75.869	-152.7487
30.700001	75.906	-153.1414
31.100000	75.942	-153.7897
31.500000	75.951	-154.4779
32.000000	75.934	-155.2029
32.500000	75.917	-155.7056
33.000000	75.925	-156.1186
33.500000	75.955	-156.6060
34.000000	75.984	-157.1975
34.500000	75.999	-157.7959
35.000000	76.006	-158.3193
35.500000	76.019	-158.7760
36.000000	76.041	-159.2397
36.500000	76.064	-159.7706
37.000000	76.072	-160.3542
37.500000	76.058	-160.8895
38.200001	76.024	-161.3364
38.700001	76.026	-161.4614
39.500000	76.101	-161.9058
40.000000	76.146	-162.5595
40.599998	76.144	-163.5094
41.200001	76.094	-164.2045
41.799999	76.061	-164.5877
42.500000	76.076	-165.1184
43.099998	76.079	-165.8973
43.700001	76.027	-166.6821
44.400002	75.931	-167.1124
45.000000	75.891	-167.0664
45.500000	75.914	-167.0378
46.200001	75.992	-167.4124
46.799999	76.036	-168.1166
47.500000	76.029	-168.9545
48.200001	76.001	-169.4858
48.700001	75.993	-169.7079
49.400002	76.008	-169.9509
50.000000	76.037	-170.1535
50.799999	76.097	-170.4818
51.500000	76.157	-170.9259
52.200001	76.199	-171.5366
53.000000	76.203	-172.3227
53.799999	76.160	-172.9785
54.500000	76.112	-173.3396
55.200001	76.079	-173.6497
56.000000	76.044	-174.1104
57.000000	75.984	-174.5856
58.000000	75.966	-174.9316
59.000000	75.973	-175.5134
60.000000	75.959	-176.1762
60.799999	75.938	-176.6240
61.500000	75.922	-176.9584
62.200001	75.907	-177.2847
63.000000	75.879	-177.6336
64.000000	75.846	-177.9431
65.000000	75.834	-178.3188
66.000000	75.809	-178.8615
67.000000	75.770	-179.3369
68.000000	75.738	-179.8119
69.000000	75.691	179.7255
70.000000	75.646	179.4740
71.000000	75.642	179.2431
72.000000	75.651	178.7734
73.000000	75.645	178.1932
74.000000	75.634	177.6202
75.000000	75.611	177.0287
76.199997	75.551	176.5839
77.500000	75.497	176.4743
78.800003	75.436	176.3674
80.000000	75.346	176.2289
81.199997	75.229	175.9699
82.500000	75.063	175.6420
83.800003	74.953	175.7183
85.000000	74.979	175.5472
86.199997	75.019	175.0380
87.500000	75.046	174.8585
88.500000	75.089	174.9459
90.000000	75.126	174.9218
91.199997	75.076	174.9046
92.500000	74.989	175.1738
93.800003	74.953	175.5220
95.000000	74.989	175.5317
96.199997	75.037	174.9488
97.500000	75.017	174.1040
98.800003	74.959	173.5341
100.000000	74.906	173.1745
101.500000	74.854	172.6968
103.000000	74.793	172.2176
104.400002	74.765	171.9868
106.000000	74.776	171.7172
107.500000	74.802	171.5578
109.000000	74.830	171.2616
110.599998	74.785	170.9922
112.000000	74.705	171.0451
113.800003	74.580	171.3413
115.000000	74.502	171.3382
117.199997	74.295	170.1473
118.000000	74.168	169.5332
120.599998	73.866	170.0458
122.000000	74.042	170.5072
124.099998	74.273	170.1444
125.000000	74.319	170.1349
126.500000	74.352	170.3010
128.000000	74.348	170.3953
131.500000	74.315	169.8050
132.000000	74.312	169.6560
134.000000	74.287	169.2179
136.000000	74.252	169.0127
138.000000	74.196	168.7832
140.000000	74.136	168.5238
143.000000	74.075	168.1638
145.000000	74.039	167.9804
147.500000	73.987	167.7247
150.000000	73.928	167.4560
152.500000	73.862	167.3086
155.000000	73.795	167.2400
157.500000	73.729	167.2099
160.000000	73.685	167.2360
162.500000	73.640	167.1893
165.000000	73.574	167.0905
167.500000	73.508	167.0009
170.000000	73.467	166.9371
172.500000	73.432	166.8869
175.000000	73.377	166.9090
177.500000	73.314	166.9515
180.000000	73.258	166.9358
182.500000	73.209	166.8869
185.000000	73.154	166.8371
187.500000	73.093	166.8290
190.000000	73.048	166.8829
192.500000	73.021	166.9856
195.000000	72.993	167.1169
197.500000	72.954	167.2227
200.000000	72.914	167.2858
203.000000	72.878	167.2869
206.000000	72.851	167.2218
209.000000	72.823	167.1683
212.000000	72.783	167.1981
214.000000	72.748	167.2555
218.000000	72.677	167.3198
220.000000	72.641	167.3160
224.000000	72.576	167.3342
227.000000	72.544	167.3071
230.000000	72.509	167.2905
233.000000	72.453	167.3647
236.000000	72.403	167.5125
240.000000	72.364	167.6739
243.000000	72.317	167.7878
247.000000	72.241	167.9033
250.000000	72.198	168.0212
254.000000	72.152	168.2674
258.000000	72.101	168.4404
262.000000	72.057	168.5931
265.000000	72.028	168.7147
269.000000	71.982	168.8256
272.000000	71.940	168.9299
276.000000	71.884	169.1540
280.000000	71.836	169.3624
285.000000	71.788	169.5384
290.000000	71.736	169.7325
295.000000	71.684	169.9884
300.000000	71.645	170.2973
304.000000	71.613	170.5367
307.000000	71.588	170.6569
311.000000	71.555	170.8218
315.000000	71.520	171.0109
320.000000	71.476	171.2516
325.000000	71.433	171.4888
330.000000	71.399	171.7410
335.000000	71.363	172.0296
340.000000	71.317	172.2710
345.000000	71.286	172.5684
350.000000	71.260	172.8899
355.000000	71.216	173.1679
360.000000	71.171	173.3973
365.000000	71.132	173.6336
370.000000	71.098	173.9332
375.000000	71.071	174.2584
382.000000	71.027	174.6149
387.000000	70.993	174.8252
395.000000	70.946	175.2337
400.000000	70.924	175.5669
406.000000	70.888	175.9654
412.000000	70.855	176.3251
418.000000	70.823	176.7483
425.000000	70.781	177.1767
431.000000	70.744	177.4659
437.000000	70.707	177.7779
444.000000	70.674	178.2063
450.000000	70.648	178.5370
455.000000	70.624	178.7749
462.000000	70.596	179.1710
468.000000	70.577	179.5779
475.000000	70.557	-179.9637
482.000000	70.538	-179.5617
487.000000	70.526	-179.2911
494.000000	70.504	-178.9013
500.000000	70.488	-178.5198
508.000000	70.466	-178.0030
515.000000	70.439	-177.5939
522.000000	70.420	-177.1966
530.000000	70.414	-176.7720
538.000000	70.398	-176.3768
545.000000	70.375	-176.0061
552.000000	70.358	-175.5697
560.000000	70.344	-174.9693
570.000000	70.327	-174.2715
580.000000	70.314	-173.7296
590.000000	70.305	-173.1581
600.000000	70.282	-172.5223
608.000000	70.267	-172.0517
615.000000	70.261	-171.6420
622.000000	70.259	-171.2203
630.000000	70.261	-170.7294
640.000000	70.255	-170.0986
650.000000	70.242	-169.4322
660.000000	70.231	-168.8545
670.000000	70.218	-168.2756
680.000000	70.214	-167.6325
690.000000	70.224	-166.9759
700.000000	70.240	-166.2799
710.000000	70.246	-165.6562
720.000000	70.245	-165.0794
730.000000	70.244	-164.4724
740.000000	70.253	-163.8140
750.000000	70.268	-163.1617
762.000000	70.285	-162.3599
775.000000	70.306	-161.5054
788.000000	70.320	-160.6976
800.000000	70.335	-159.9647
812.000000	70.365	-159.2020
825.000000	70.409	-158.3556
838.000000	70.456	-157.4971
850.000000	70.503	-156.7238
862.000000	70.554	-155.9560
875.000000	70.609	-155.1004
885.000000	70.656	-154.4325
900.000000	70.769	-153.3769
912.000000	70.908	-152.6176
925.000000	71.056	-152.3011
938.000000	71.127	-152.3046
950.000000	71.137	-152.0946
962.000000	71.141	-151.6324
975.000000	71.171	-150.9383
988.000000	71.227	-150.1886
1000.000000	71.296	-149.5565
1015.000000	71.409	-148.8983
1030.000000	71.526	-148.3054
1044.000000	71.622	-147.7916
1060.000000	71.729	-147.2395
1075.000000	71.840	-146.8065
1090.000000	71.954	-146.4218
1106.000000	72.082	-146.0652
1120.000000	72.194	-145.8117
1138.000000	72.344	-145.5055
1150.000000	72.444	-145.3118
1172.000000	72.618	-145.0798
1180.000000	72.680	-145.0181
1206.000000	72.882	-144.8134
1220.000000	72.985	-144.7558
1241.000000	73.129	-144.7309
1250.000000	73.189	-144.7240
1265.000000	73.290	-144.7247
1280.000000	73.387	-144.7553
1315.000000	73.598	-144.8242
1320.000000	73.626	-144.8372
1340.000000	73.728	-144.9161
1360.000000	73.820	-145.0021
1380.000000	73.912	-145.0736
1400.000000	74.008	-145.1619
1430.000000	74.144	-145.2779
1450.000000	74.234	-145.3343
1475.000000	74.341	-145.3846
1500.000000	74.442	-145.4316
1525.000000	74.544	-145.5085
1550.000000	74.645	-145.5689
1575.000000	74.742	-145.5983
1600.000000	74.834	-145.6122
1625.000000	74.927	-145.6222
1650.000000	75.023	-145.6443
1675.000000	75.117	-145.6598
1700.000000	75.214	-145.6885
1725.000000	75.310	-145.7499
1750.000000	75.402	-145.8259
1775.000000	75.491	-145.8783
1800.000000	75.581	-145.9107
1825.000000	75.672	-145.9497
1850.000000	75.767	-146.0169
1875.000000	75.860	-146.0884
1900.000000	75.954	-146.1828
1925.000000	76.046	-146.2875
1950.000000	76.138	-146.3960
1975.000000	76.231	-146.5210
2000.000000	76.322	-146.6722
2030.000000	76.429	-146.8934
2060.000000	76.532	-147.1140
2090.000000	76.633	-147.3435
2120.000000	76.737	-147.6005
2140.000000	76.808	-147.7826
2180.000000	76.949	-148.1591
2200.000000	77.017	-148.3546
2240.000000	77.144	-148.7650
2270.000000	77.235	-149.1027
2300.000000	77.324	-149.4757
2330.000000	77.412	-149.8660
2360.000000	77.499	-150.2537
2400.000000	77.613	-150.7834
2430.000000	77.697	-151.2072
2470.000000	77.805	-151.7861
2500.000000	77.882	-152.2352
2540.000000	77.978	-152.8740
2580.000000	78.073	-153.5332
2620.000000	78.163	-154.1897
2650.000000	78.228	-154.6849
2690.000000	78.311	-155.3551
2720.000000	78.370	-155.8773
2760.000000	78.442	-156.5732
2800.000000	78.509	-157.2632
2850.000000	78.586	-158.1513
2900.000000	78.655	-159.0310
2950.000000	78.718	-159.9069
3000.000000	78.773	-160.7789
3040.000000	78.812	-161.4662
3070.000000	78.838	-161.9669
3110.000000	78.872	-162.6100
3150.000000	78.907	-163.2191
3200.000000	78.955	-163.9550
3250.000000	79.013	-164.6885
3300.000000	79.076	-165.4554
3350.000000	79.139	-166.3048
3400.000000	79.197	-167.2365
3450.000000	79.253	-168.2046
3500.000000	79.309	-169.1827
3550.000000	79.357	-170.1791
3600.000000	79.398	-171.1925
3650.000000	79.435	-172.1953
3700.000000	79.470	-173.2032
3750.000000	79.501	-174.2427
3820.000000	79.536	-175.7550
3870.000000	79.552	-176.8479
3950.000000	79.561	-178.6708
4000.000000	79.555	-179.8751
4060.000000	79.532	178.6467
4120.000000	79.491	177.1406
4180.000000	79.432	175.6320
4250.000000	79.339	173.8943
4310.000000	79.238	172.4435
4370.000000	79.113	171.0320
4440.000000	78.944	169.4365
4500.000000	78.782	168.1247
4550.000000	78.638	167.0789
4620.000000	78.422	165.6864
4680.000000	78.225	164.5476
4750.000000	77.980	163.2921
4820.000000	77.720	162.1343
4870.000000	77.523	161.3696
4940.000000	77.226	160.3987
5000.000000	76.956	159.6857
5080.000000	76.576	158.9687
5150.000000	76.233	158.6379
5220.000000	75.893	158.5968
5300.000000	75.523	158.8506
5380.000000	75.187	159.3353
5450.000000	74.921	159.8633
5520.000000	74.674	160.4368
5600.000000	74.409	161.1330
5700.000000	74.102	162.0769
5800.000000	73.816	163.1143
5900.000000	73.550	164.2424
6000.000000	73.309	165.4820
6080.000000	73.132	166.5264
6150.000000	72.993	167.4900
6220.000000	72.868	168.5143
6300.000000	72.737	169.7393
6400.000000	72.600	171.3611
6500.000000	72.509	173.1189
6600.000000	72.463	174.9702
6700.000000	72.472	176.8499
6800.000000	72.541	178.6947
6900.000000	72.691	-179.5639
7000.000000	72.929	-178.0094
7100.000000	73.240	-176.7063
7200.000000	73.622	-175.7375
7300.000000	74.064	-175.2645
7400.000000	74.557	-175.4114
7500.000000	75.088	-176.2864
7620.000000	75.760	-178.5582
7750.000000	76.442	177.1925
7880.000000	76.882	171.1268
8000.000000	77.001	164.4801
8120.000000	76.848	157.5972
8250.000000	76.424	150.5323
8380.000000	75.783	144.0697
8500.000000	74.995	138.8355
8620.000000	74.031	134.7452
8750.000000	72.860	131.9335
8850.000000	71.930	130.8955
9000.000000	70.566	130.8339
9120.000000	69.536	131.7960
9250.000000	68.504	133.5926
9380.000000	67.551	135.9784
9500.000000	66.732	138.6414
9620.000000	65.979	141.6585
9750.000000	65.243	145.1683
9880.000000	64.579	148.9000
10000.000000	64.011	152.5952
10150.000000	63.362	157.5720
10300.000000	62.803	162.9058
10440.000000	62.359	168.1157
10600.000000	61.926	174.2902
10750.000000	61.591	-179.5173
10900.000000	61.337	-172.7354
11060.000000	61.234	-164.8418
11200.000000	61.343	-157.5054
11380.000000	61.827	-148.1168
11500.000000	62.381	-142.4095
11720.000000	63.723	-134.3153
11800.000000	64.262	-132.2706
12060.000000	65.963	-128.5041
12200.000000	66.806	-127.7620
12410.000000	68.024	-127.5081
12500.000000	68.563	-127.6636
12650.000000	69.528	-128.4666
12800.000000	70.591	-130.3445
13150.000000	73.141	-142.6641
13200.000000	73.434	-145.6778
13400.000000	74.136	-160.6102
13600.000000	73.876	-177.1432
13800.000000	72.732	169.4964
14000.000000	71.110	161.4523
14300.000000	68.668	157.3400
14500.000000	67.331	157.6387
14750.000000	66.035	159.5671
15000.000000	65.100	162.2253
15250.000000	64.503	165.0132
15500.000000	64.246	167.3023
15750.000000	64.283	168.4904
16000.000000	64.505	167.9119
16250.000000	64.778	164.8860
16500.000000	64.888	159.1253
16750.000000	64.612	151.3535
17000.000000	63.841	143.3036
17250.000000	62.630	136.8188
17500.000000	61.185	132.7468
17750.000000	59.651	130.7196
18000.000000	58.042	130.6196
18250.000000	56.386	133.1486
18500.000000	54.880	137.7063
18750.000000	53.622	142.9543
19000.000000	52.530	148.4170
19250.000000	51.522	154.2388
19500.000000	50.575	160.7097
19750.000000	49.697	167.1555
20000.000000	49.019	171.7007
