* Measurement data measured by REW V5.20.5
* Source: ??? (Realtek(R) Audio), MICROPHONE (Master Volume), L, volume: 0.250
* Format: 128k Log Swept Sine, 4 sweeps at -12.0 dBFS with no timing reference
* Dated: 22-Apr-2022 15:53:12
* REW Settings:
*  C-weighting compensation: Off
*  Target level: 75.0 dB
* Note: 
* Measurement: Aria (2021) Sample 1 R
* Smoothing: 1/24 octave
* Frequency Step: 1/48 octave
* Start Frequency: 20.300 Hz
*
* Freq(Hz)	SPL(dB)	Phase(degrees)
20.299999	78.378	-136.6717
20.600000	78.398	-137.0123
20.900000	78.438	-137.6098
21.200001	78.474	-138.1509
21.400000	78.496	-138.4872
21.799999	78.541	-139.1568
22.000000	78.565	-139.5105
22.400000	78.611	-140.2683
22.700001	78.642	-140.8835
23.000000	78.670	-141.5350
23.299999	78.691	-142.2041
23.600000	78.708	-142.8699
24.000000	78.728	-143.7230
24.299999	78.744	-144.3244
24.700001	78.771	-145.0806
25.000000	78.796	-145.6280
25.400000	78.834	-146.3517
25.799999	78.874	-147.0771
26.200001	78.912	-147.7946
26.500000	78.938	-148.3174
26.900000	78.968	-148.9872
27.200001	78.988	-149.4709
27.600000	79.013	-150.0981
28.000000	79.035	-150.7119
28.500000	79.056	-151.4584
29.000000	79.073	-152.1727
29.500000	79.087	-152.8592
30.000000	79.101	-153.5401
30.400000	79.111	-154.0935
30.700001	79.118	-154.5140
31.100000	79.125	-155.0768
31.500000	79.130	-155.6358
32.000000	79.135	-156.3243
32.500000	79.140	-157.0031
33.000000	79.147	-157.6754
33.500000	79.157	-158.3423
34.000000	79.169	-159.0033
34.500000	79.181	-159.6542
35.000000	79.192	-160.2852
35.500000	79.201	-160.8848
36.000000	79.210	-161.4513
36.500000	79.220	-161.9965
37.000000	79.230	-162.5362
37.500000	79.237	-163.0766
38.200001	79.240	-163.8226
38.700001	79.235	-164.3382
39.500000	79.223	-165.1355
40.000000	79.212	-165.6227
40.599998	79.197	-166.1915
41.200001	79.180	-166.7289
41.799999	79.167	-167.2379
42.500000	79.159	-167.8313
43.099998	79.154	-168.3598
43.700001	79.149	-168.8920
44.400002	79.145	-169.5059
45.000000	79.143	-170.0431
45.500000	79.140	-170.5037
46.200001	79.130	-171.1478
46.799999	79.117	-171.6858
47.500000	79.097	-172.2899
48.200001	79.070	-172.8299
48.700001	79.053	-173.1628
49.400002	79.037	-173.5958
50.000000	79.029	-173.9809
50.799999	79.021	-174.5209
51.500000	79.018	-175.0357
52.200001	79.011	-175.6318
53.000000	78.981	-176.3273
53.799999	78.938	-176.8665
54.500000	78.913	-177.2455
55.200001	78.897	-177.6619
56.000000	78.867	-178.1526
57.000000	78.825	-178.5922
58.000000	78.810	-179.0013
59.000000	78.795	-179.5497
60.000000	78.768	179.8730
60.799999	78.739	179.4191
61.500000	78.711	179.0541
62.200001	78.687	178.7131
63.000000	78.662	178.3051
64.000000	78.625	177.7777
65.000000	78.583	177.2842
66.000000	78.537	176.8167
67.000000	78.492	176.3602
68.000000	78.448	175.8946
69.000000	78.409	175.4141
70.000000	78.374	174.8983
71.000000	78.338	174.3990
72.000000	78.303	173.9634
73.000000	78.268	173.5575
74.000000	78.220	173.1869
75.000000	78.160	172.8571
76.199997	78.077	172.4809
77.500000	77.993	171.9916
78.800003	77.913	171.4301
80.000000	77.861	171.0757
81.199997	77.833	170.9396
82.500000	77.792	171.1700
83.800003	77.726	172.2136
85.000000	77.777	173.3477
86.199997	77.799	173.0037
87.500000	77.618	172.1343
88.500000	77.495	171.4034
90.000000	77.390	169.1938
91.199997	77.207	167.0678
92.500000	76.973	167.1074
93.800003	77.092	168.3608
95.000000	77.269	168.5977
96.199997	77.337	168.6335
97.500000	77.311	168.7100
98.800003	77.225	168.8548
100.000000	77.154	168.9002
101.500000	77.083	168.6975
103.000000	77.027	168.7285
104.400002	77.050	169.0962
106.000000	77.134	169.1910
107.500000	77.164	168.8649
109.000000	77.151	168.5000
110.599998	77.151	168.0551
112.000000	77.156	167.4883
113.800003	77.135	166.7487
115.000000	77.102	166.3705
117.199997	77.029	165.8719
118.000000	77.002	165.7134
120.599998	76.919	165.1602
122.000000	76.868	164.8336
124.099998	76.775	164.4590
125.000000	76.736	164.3427
126.500000	76.675	164.1671
128.000000	76.620	163.9884
131.500000	76.497	163.5594
132.000000	76.478	163.5064
134.000000	76.405	163.3243
136.000000	76.336	163.1606
138.000000	76.270	163.0093
140.000000	76.205	162.8675
143.000000	76.105	162.6854
145.000000	76.041	162.5698
147.500000	75.962	162.4477
150.000000	75.885	162.3640
152.500000	75.808	162.3257
155.000000	75.732	162.3297
157.500000	75.660	162.3418
160.000000	75.596	162.3269
162.500000	75.537	162.2799
165.000000	75.478	162.2529
167.500000	75.419	162.2556
170.000000	75.361	162.2500
172.500000	75.307	162.1882
175.000000	75.247	162.1225
177.500000	75.187	162.1389
180.000000	75.134	162.1737
182.500000	75.075	162.1827
185.000000	75.010	162.2620
187.500000	74.955	162.4207
190.000000	74.916	162.5710
192.500000	74.889	162.6517
195.000000	74.862	162.6438
197.500000	74.825	162.5720
200.000000	74.774	162.4969
203.000000	74.705	162.4547
206.000000	74.641	162.4662
209.000000	74.581	162.5055
212.000000	74.522	162.5612
214.000000	74.484	162.6013
218.000000	74.409	162.7115
220.000000	74.371	162.7773
224.000000	74.290	162.8867
227.000000	74.230	162.9601
230.000000	74.173	163.0516
233.000000	74.114	163.1665
236.000000	74.057	163.2704
240.000000	73.993	163.4048
243.000000	73.948	163.5406
247.000000	73.886	163.7323
250.000000	73.841	163.8593
254.000000	73.781	164.0238
258.000000	73.723	164.2020
262.000000	73.667	164.3999
265.000000	73.625	164.5430
269.000000	73.571	164.7277
272.000000	73.532	164.8875
276.000000	73.481	165.1143
280.000000	73.429	165.3132
285.000000	73.371	165.5511
290.000000	73.316	165.8220
295.000000	73.261	166.1079
300.000000	73.207	166.3884
304.000000	73.164	166.6032
307.000000	73.133	166.7574
311.000000	73.093	166.9697
315.000000	73.054	167.1964
320.000000	73.006	167.4867
325.000000	72.960	167.7708
330.000000	72.914	168.0562
335.000000	72.868	168.3450
340.000000	72.825	168.6245
345.000000	72.784	168.9138
350.000000	72.741	169.2018
355.000000	72.700	169.4882
360.000000	72.664	169.7934
365.000000	72.627	170.0951
370.000000	72.587	170.3744
375.000000	72.551	170.6605
382.000000	72.504	171.0945
387.000000	72.471	171.3897
395.000000	72.422	171.8468
400.000000	72.392	172.1543
406.000000	72.354	172.5153
412.000000	72.320	172.8607
418.000000	72.289	173.2157
425.000000	72.251	173.6403
431.000000	72.221	173.9980
437.000000	72.194	174.3453
444.000000	72.164	174.7539
450.000000	72.137	175.1132
455.000000	72.117	175.4130
462.000000	72.092	175.8243
468.000000	72.070	176.1670
475.000000	72.041	176.5670
482.000000	72.016	176.9887
487.000000	72.000	177.2979
494.000000	71.980	177.7097
500.000000	71.963	178.0471
508.000000	71.938	178.5196
515.000000	71.921	178.9476
522.000000	71.905	179.3575
530.000000	71.887	179.8080
538.000000	71.868	-179.7312
545.000000	71.852	-179.3180
552.000000	71.838	-178.8981
560.000000	71.821	-178.4292
570.000000	71.796	-177.8547
580.000000	71.777	-177.2643
590.000000	71.760	-176.6736
600.000000	71.744	-176.1023
608.000000	71.735	-175.6390
615.000000	71.727	-175.2131
622.000000	71.718	-174.7858
630.000000	71.710	-174.3220
640.000000	71.704	-173.7502
650.000000	71.698	-173.1452
660.000000	71.694	-172.5402
670.000000	71.692	-171.9643
680.000000	71.692	-171.3771
690.000000	71.693	-170.7706
700.000000	71.696	-170.1771
710.000000	71.703	-169.5941
720.000000	71.710	-168.9953
730.000000	71.717	-168.3863
740.000000	71.727	-167.7865
750.000000	71.741	-167.1935
762.000000	71.758	-166.4752
775.000000	71.779	-165.6996
788.000000	71.803	-164.9326
800.000000	71.828	-164.2263
812.000000	71.854	-163.5175
825.000000	71.890	-162.7649
838.000000	71.931	-162.0045
850.000000	71.969	-161.3018
862.000000	72.008	-160.6137
875.000000	72.055	-159.8908
885.000000	72.093	-159.3431
900.000000	72.151	-158.5349
912.000000	72.202	-157.9115
925.000000	72.264	-157.2526
938.000000	72.328	-156.6128
950.000000	72.387	-156.0397
962.000000	72.448	-155.4788
975.000000	72.516	-154.8937
988.000000	72.583	-154.3336
1000.000000	72.642	-153.8207
1015.000000	72.719	-153.1317
1030.000000	72.814	-152.4032
1044.000000	72.919	-151.8137
1060.000000	73.042	-151.2906
1075.000000	73.149	-150.8699
1090.000000	73.248	-150.5071
1106.000000	73.349	-150.1931
1120.000000	73.434	-149.9500
1138.000000	73.538	-149.6375
1150.000000	73.607	-149.4385
1172.000000	73.736	-149.1422
1180.000000	73.782	-149.0528
1206.000000	73.933	-148.7716
1220.000000	74.019	-148.6419
1241.000000	74.156	-148.5031
1250.000000	74.215	-148.4539
1265.000000	74.312	-148.3722
1280.000000	74.406	-148.2974
1315.000000	74.621	-148.2270
1320.000000	74.651	-148.2232
1340.000000	74.767	-148.2014
1360.000000	74.882	-148.1864
1380.000000	75.000	-148.2018
1400.000000	75.120	-148.2389
1430.000000	75.288	-148.2986
1450.000000	75.396	-148.3458
1475.000000	75.530	-148.4113
1500.000000	75.656	-148.4737
1525.000000	75.773	-148.5417
1550.000000	75.882	-148.6108
1575.000000	75.982	-148.6766
1600.000000	76.078	-148.7446
1625.000000	76.174	-148.8158
1650.000000	76.269	-148.8776
1675.000000	76.362	-148.9407
1700.000000	76.456	-149.0168
1725.000000	76.553	-149.1019
1750.000000	76.651	-149.1857
1775.000000	76.749	-149.2715
1800.000000	76.848	-149.3708
1825.000000	76.947	-149.4815
1850.000000	77.044	-149.6015
1875.000000	77.140	-149.7333
1900.000000	77.238	-149.8804
1925.000000	77.334	-150.0423
1950.000000	77.427	-150.2136
1975.000000	77.520	-150.3954
2000.000000	77.614	-150.5902
2030.000000	77.726	-150.8462
2060.000000	77.835	-151.1263
2090.000000	77.941	-151.4204
2120.000000	78.049	-151.7253
2140.000000	78.120	-151.9435
2180.000000	78.255	-152.4292
2200.000000	78.320	-152.6865
2240.000000	78.450	-153.2113
2270.000000	78.545	-153.6263
2300.000000	78.636	-154.0749
2330.000000	78.724	-154.5432
2360.000000	78.811	-155.0150
2400.000000	78.923	-155.6716
2430.000000	79.002	-156.2028
2470.000000	79.102	-156.9375
2500.000000	79.176	-157.4858
2540.000000	79.270	-158.2401
2580.000000	79.354	-159.0510
2620.000000	79.430	-159.8726
2650.000000	79.485	-160.4784
2690.000000	79.552	-161.3120
2720.000000	79.595	-161.9745
2760.000000	79.644	-162.8696
2800.000000	79.687	-163.7351
2850.000000	79.728	-164.8223
2900.000000	79.755	-165.9348
2950.000000	79.767	-167.0028
3000.000000	79.765	-168.0282
3040.000000	79.756	-168.8351
3070.000000	79.745	-169.4121
3110.000000	79.728	-170.1194
3150.000000	79.709	-170.7791
3200.000000	79.683	-171.5888
3250.000000	79.654	-172.3897
3300.000000	79.615	-173.1538
3350.000000	79.565	-173.8707
3400.000000	79.508	-174.5232
3450.000000	79.446	-175.0516
3500.000000	79.386	-175.4353
3550.000000	79.338	-175.7132
3600.000000	79.312	-175.9375
3650.000000	79.311	-176.1811
3700.000000	79.324	-176.5359
3750.000000	79.340	-177.0454
3820.000000	79.347	-177.9535
3870.000000	79.338	-178.6542
3950.000000	79.298	-179.7460
4000.000000	79.264	179.6197
4060.000000	79.220	178.9163
4120.000000	79.173	178.2475
4180.000000	79.123	177.5805
4250.000000	79.063	176.8097
4310.000000	79.011	176.1481
4370.000000	78.954	175.4456
4440.000000	78.875	174.5536
4500.000000	78.791	173.7618
4550.000000	78.706	173.1150
4620.000000	78.560	172.2749
4680.000000	78.414	171.6776
4750.000000	78.232	171.2022
4820.000000	78.051	170.9742
4870.000000	77.928	170.9022
4940.000000	77.765	170.8311
5000.000000	77.633	170.7747
5080.000000	77.459	170.7056
5150.000000	77.305	170.6393
5220.000000	77.145	170.5762
5300.000000	76.951	170.5898
5380.000000	76.746	170.7514
5450.000000	76.561	171.0020
5520.000000	76.374	171.3655
5600.000000	76.162	171.9579
5700.000000	75.918	172.9589
5800.000000	75.724	174.1187
5900.000000	75.573	175.2299
6000.000000	75.432	176.2732
6080.000000	75.324	177.1495
6150.000000	75.242	177.9615
6220.000000	75.172	178.8146
6300.000000	75.105	179.8459
6400.000000	75.046	-178.8047
6500.000000	75.027	-177.4209
6600.000000	75.045	-176.0291
6700.000000	75.100	-174.6526
6800.000000	75.203	-173.3446
6900.000000	75.367	-172.1539
7000.000000	75.589	-171.1314
7100.000000	75.865	-170.3653
7200.000000	76.198	-169.9449
7300.000000	76.587	-169.9745
7400.000000	77.019	-170.6015
7500.000000	77.476	-171.9951
7620.000000	78.022	-174.8881
7750.000000	78.522	-179.7051
7880.000000	78.808	173.7369
8000.000000	78.794	166.5774
8120.000000	78.472	159.1900
8250.000000	77.792	151.9004
8380.000000	76.840	146.0988
8500.000000	75.818	142.3516
8620.000000	74.751	140.0804
8750.000000	73.608	138.9303
8850.000000	72.756	138.7065
9000.000000	71.530	139.2119
9120.000000	70.598	140.2666
9250.000000	69.636	141.9395
9380.000000	68.722	144.0411
9500.000000	67.916	146.3369
9620.000000	67.140	148.9935
9750.000000	66.344	152.2925
9880.000000	65.600	156.0047
10000.000000	64.960	159.7856
10150.000000	64.229	164.9653
10300.000000	63.583	170.5531
10440.000000	63.066	176.0427
10600.000000	62.563	-177.3981
10750.000000	62.167	-170.9520
10900.000000	61.845	-164.1429
11060.000000	61.595	-156.3669
11200.000000	61.474	-148.9787
11380.000000	61.547	-138.4677
11500.000000	61.839	-130.8767
11720.000000	63.118	-117.1666
11800.000000	63.815	-112.9442
12060.000000	66.399	-104.9871
12200.000000	67.691	-104.3351
12410.000000	69.345	-105.7933
12500.000000	69.985	-106.7110
12650.000000	71.042	-108.3230
12800.000000	72.166	-110.2298
13150.000000	75.150	-119.6602
13200.000000	75.571	-122.0719
13400.000000	76.944	-135.3205
13600.000000	77.471	-152.9805
13800.000000	76.993	-170.1988
14000.000000	75.776	177.4908
14300.000000	73.583	168.9658
14500.000000	72.360	167.4187
14750.000000	71.266	167.6637
15000.000000	70.638	168.6990
15250.000000	70.411	169.2662
15500.000000	70.507	168.3227
15750.000000	70.764	164.6927
16000.000000	70.910	157.5664
16250.000000	70.634	147.6262
16500.000000	69.760	137.2464
16750.000000	68.353	128.7150
17000.000000	66.633	122.3837
17250.000000	64.620	118.0394
17500.000000	62.083	119.1016
17750.000000	59.596	126.2247
18000.000000	57.909	133.6221
18250.000000	56.648	139.7955
18500.000000	55.506	146.1864
18750.000000	54.578	153.3441
19000.000000	54.006	160.2826
19250.000000	53.743	165.9791
19500.000000	53.636	170.0287
19750.000000	53.504	172.4092
20000.000000	53.344	173.3930
