* Measurement data measured by REW V5.20.9
* Source: Mic in at rear panel (Pink)(Realtek(R) Audio), MICROPHONE (마스), L, volume: 0.500
* Format: 256k Log Swept Sine, 1 sweep at -12.0 dBFS with no timing reference
* Dated: 2022. 9. 24 오후 12:16:23
* REW Settings:
*  C-weighting compensation: Off
*  Target level: 75.0 dB
* Note: 
* Measurement: L_Spring
* Smoothing: 1/24 octave
* Frequency Step: 1/48 octave
* Start Frequency: 20.300 Hz
*
* Freq(Hz)	SPL(dB)	Phase(degrees)
20.299999	69.097	39.6399
20.600000	69.117	39.2910
20.900000	69.159	38.6781
21.200001	69.200	38.1153
21.400000	69.228	37.7480
21.799999	69.281	36.9686
22.000000	69.304	36.5425
22.400000	69.341	35.6479
22.700001	69.358	34.9839
23.000000	69.370	34.3600
23.299999	69.385	33.7821
23.600000	69.408	33.2297
24.000000	69.452	32.4760
24.299999	69.493	31.8541
24.700001	69.544	30.9352
25.000000	69.573	30.2132
25.400000	69.593	29.2920
25.799999	69.602	28.5106
26.200001	69.616	27.8904
26.500000	69.638	27.4866
26.900000	69.681	26.9412
27.200001	69.718	26.4742
27.600000	69.762	25.7548
28.000000	69.789	24.9771
28.500000	69.798	24.0540
29.000000	69.796	23.2690
29.500000	69.802	22.5715
30.000000	69.817	21.8511
30.400000	69.830	21.2263
30.700001	69.836	20.7409
31.100000	69.838	20.1021
31.500000	69.837	19.4964
32.000000	69.837	18.7902
32.500000	69.846	18.1084
33.000000	69.862	17.4074
33.500000	69.880	16.6730
34.000000	69.893	15.9342
34.500000	69.897	15.2453
35.000000	69.900	14.6369
35.500000	69.909	14.0862
36.000000	69.924	13.5411
36.500000	69.938	12.9823
37.000000	69.949	12.4393
37.500000	69.961	11.9334
38.200001	69.988	11.1896
38.700001	70.004	10.5437
39.500000	69.980	9.4738
40.000000	69.942	9.0185
40.599998	69.916	8.7566
41.200001	69.939	8.5526
41.799999	69.991	8.1515
42.500000	70.038	7.4741
43.099998	70.065	6.9221
43.700001	70.101	6.4100
44.400002	70.154	5.6860
45.000000	70.185	4.9087
45.500000	70.190	4.2386
46.200001	70.176	3.3980
46.799999	70.162	2.7825
47.500000	70.154	2.1054
48.200001	70.154	1.4028
48.700001	70.155	0.8719
49.400002	70.151	0.1062
50.000000	70.138	-0.5199
50.799999	70.119	-1.2351
51.500000	70.113	-1.7828
52.200001	70.114	-2.3514
53.000000	70.106	-3.0169
53.799999	70.090	-3.5902
54.500000	70.083	-4.0419
55.200001	70.082	-4.5330
56.000000	70.079	-5.1597
57.000000	70.068	-6.0297
58.000000	70.035	-6.9198
59.000000	69.996	-7.6577
60.000000	69.969	-8.3356
60.799999	69.952	-8.8443
61.500000	69.947	-9.2689
62.200001	69.946	-9.7658
63.000000	69.920	-10.4103
64.000000	69.840	-10.9549
65.000000	69.785	-10.9791
66.000000	69.819	-11.0858
67.000000	69.862	-11.7708
68.000000	69.852	-12.6475
69.000000	69.821	-13.4556
70.000000	69.784	-14.1890
71.000000	69.753	-14.7496
72.000000	69.756	-15.2121
73.000000	69.777	-15.8311
74.000000	69.756	-16.5344
75.000000	69.693	-16.9426
76.199997	69.611	-17.0542
77.500000	69.544	-16.7174
78.800003	69.616	-16.5154
80.000000	69.688	-17.4646
81.199997	69.640	-18.6039
82.500000	69.574	-19.1721
83.800003	69.616	-19.5327
85.000000	69.671	-20.3336
86.199997	69.665	-21.0604
87.500000	69.679	-21.5718
88.500000	69.707	-22.1878
90.000000	69.696	-23.4117
91.199997	69.650	-24.3121
92.500000	69.592	-25.1639
93.800003	69.514	-25.8519
95.000000	69.445	-26.2214
96.199997	69.400	-26.5292
97.500000	69.356	-26.9560
98.800003	69.300	-27.4179
100.000000	69.238	-27.7418
101.500000	69.159	-27.9904
103.000000	69.068	-27.9621
104.400002	69.008	-27.5968
106.000000	69.018	-27.1671
107.500000	69.083	-26.9626
109.000000	69.206	-26.7878
110.599998	69.410	-26.8104
112.000000	69.597	-27.2852
113.800003	69.763	-28.5766
115.000000	69.824	-29.7911
117.199997	69.873	-32.7097
118.000000	69.869	-33.9045
120.599998	69.753	-36.5968
122.000000	69.750	-37.0274
124.099998	69.771	-37.8086
125.000000	69.754	-38.2226
126.500000	69.695	-38.9860
128.000000	69.622	-39.8004
131.500000	69.485	-41.5522
132.000000	69.468	-41.7728
134.000000	69.398	-42.6053
136.000000	69.322	-43.4323
138.000000	69.250	-44.2605
140.000000	69.188	-45.0128
143.000000	69.100	-45.9980
145.000000	69.032	-46.6453
147.500000	68.955	-47.4749
150.000000	68.895	-48.2952
152.500000	68.835	-49.1005
155.000000	68.762	-49.8696
157.500000	68.692	-50.6265
160.000000	68.627	-51.4031
162.500000	68.557	-52.1387
165.000000	68.487	-52.8055
167.500000	68.421	-53.4442
170.000000	68.359	-54.0538
172.500000	68.291	-54.6828
175.000000	68.222	-55.3500
177.500000	68.161	-56.0400
180.000000	68.100	-56.6543
182.500000	68.036	-57.1879
185.000000	67.970	-57.7338
187.500000	67.910	-58.2630
190.000000	67.860	-58.7691
192.500000	67.805	-59.2852
195.000000	67.747	-59.8239
197.500000	67.695	-60.3908
200.000000	67.645	-60.8828
203.000000	67.585	-61.3580
206.000000	67.518	-61.8285
209.000000	67.451	-62.2761
212.000000	67.416	-62.5942
214.000000	67.422	-62.8349
218.000000	67.445	-63.6038
220.000000	67.446	-64.1104
224.000000	67.416	-65.2299
227.000000	67.372	-66.0536
230.000000	67.319	-66.8326
233.000000	67.262	-67.5592
236.000000	67.199	-68.2236
240.000000	67.111	-69.0233
243.000000	67.049	-69.5731
247.000000	66.962	-70.2990
250.000000	66.896	-70.8270
254.000000	66.817	-71.5007
258.000000	66.742	-72.1652
262.000000	66.665	-72.8051
265.000000	66.607	-73.2714
269.000000	66.527	-73.8531
272.000000	66.469	-74.2314
276.000000	66.397	-74.7003
280.000000	66.333	-75.1859
285.000000	66.259	-75.6924
290.000000	66.203	-76.1461
295.000000	66.168	-76.6430
300.000000	66.134	-77.2774
304.000000	66.101	-77.8563
307.000000	66.070	-78.2951
311.000000	66.027	-78.8408
315.000000	65.982	-79.3279
320.000000	65.922	-79.9143
325.000000	65.864	-80.4679
330.000000	65.808	-80.9802
335.000000	65.755	-81.4641
340.000000	65.700	-81.9168
345.000000	65.648	-82.3752
350.000000	65.602	-82.8483
355.000000	65.556	-83.2815
360.000000	65.504	-83.6641
365.000000	65.456	-84.0533
370.000000	65.410	-84.4483
375.000000	65.364	-84.7941
382.000000	65.295	-85.2268
387.000000	65.250	-85.5610
395.000000	65.189	-86.0784
400.000000	65.158	-86.3931
406.000000	65.126	-86.7591
412.000000	65.091	-87.0881
418.000000	65.054	-87.3770
425.000000	65.012	-87.7147
431.000000	64.984	-87.9896
437.000000	64.957	-88.2302
444.000000	64.933	-88.4871
450.000000	64.920	-88.6990
455.000000	64.907	-88.8768
462.000000	64.887	-89.1301
468.000000	64.875	-89.3345
475.000000	64.866	-89.5610
482.000000	64.860	-89.7452
487.000000	64.856	-89.8671
494.000000	64.854	-90.0550
500.000000	64.856	-90.2143
508.000000	64.869	-90.3956
515.000000	64.883	-90.5112
522.000000	64.893	-90.6370
530.000000	64.906	-90.8136
538.000000	64.922	-90.9740
545.000000	64.939	-91.0769
552.000000	64.961	-91.1870
560.000000	64.995	-91.3115
570.000000	65.035	-91.4467
580.000000	65.073	-91.5335
590.000000	65.120	-91.5927
600.000000	65.171	-91.6887
608.000000	65.211	-91.7598
615.000000	65.248	-91.7995
622.000000	65.288	-91.8199
630.000000	65.339	-91.8332
640.000000	65.408	-91.8220
650.000000	65.478	-91.7881
660.000000	65.551	-91.7763
670.000000	65.629	-91.7423
680.000000	65.715	-91.6646
690.000000	65.807	-91.5994
700.000000	65.906	-91.5429
710.000000	66.012	-91.4778
720.000000	66.121	-91.4082
730.000000	66.234	-91.3609
740.000000	66.353	-91.3231
750.000000	66.480	-91.2935
762.000000	66.636	-91.2752
775.000000	66.810	-91.2859
788.000000	66.994	-91.3312
800.000000	67.171	-91.4010
812.000000	67.357	-91.4799
825.000000	67.565	-91.5767
838.000000	67.776	-91.7240
850.000000	67.973	-91.9228
862.000000	68.176	-92.1365
875.000000	68.399	-92.4173
885.000000	68.573	-92.6716
900.000000	68.839	-93.1088
912.000000	69.056	-93.5052
925.000000	69.293	-93.9837
938.000000	69.530	-94.5244
950.000000	69.746	-95.0766
962.000000	69.966	-95.6707
975.000000	70.205	-96.3757
988.000000	70.442	-97.1572
1000.000000	70.658	-97.9391
1015.000000	70.922	-98.9328
1030.000000	71.181	-99.9886
1044.000000	71.420	-101.0563
1060.000000	71.684	-102.3573
1075.000000	71.923	-103.6326
1090.000000	72.157	-104.9554
1106.000000	72.403	-106.4251
1120.000000	72.612	-107.7564
1138.000000	72.866	-109.5204
1150.000000	73.026	-110.7178
1172.000000	73.304	-112.9320
1180.000000	73.399	-113.7414
1206.000000	73.684	-116.3991
1220.000000	73.825	-117.8386
1241.000000	74.020	-119.9842
1250.000000	74.097	-120.8917
1265.000000	74.217	-122.3799
1280.000000	74.327	-123.8334
1315.000000	74.549	-127.0893
1320.000000	74.577	-127.5341
1340.000000	74.681	-129.2424
1360.000000	74.774	-130.8180
1380.000000	74.874	-132.2608
1400.000000	74.994	-133.6216
1430.000000	75.212	-135.7470
1450.000000	75.358	-137.3632
1475.000000	75.509	-139.5549
1500.000000	75.617	-141.7154
1525.000000	75.698	-143.7032
1550.000000	75.769	-145.5217
1575.000000	75.836	-147.2078
1600.000000	75.906	-148.7720
1625.000000	75.983	-150.2490
1650.000000	76.068	-151.6700
1675.000000	76.163	-153.0772
1700.000000	76.262	-154.5142
1725.000000	76.358	-155.9844
1750.000000	76.450	-157.4633
1775.000000	76.538	-158.9331
1800.000000	76.624	-160.4005
1825.000000	76.708	-161.8706
1850.000000	76.791	-163.3421
1875.000000	76.870	-164.8183
1900.000000	76.944	-166.2999
1925.000000	77.012	-167.7715
1950.000000	77.074	-169.2221
1975.000000	77.136	-170.6372
2000.000000	77.205	-172.0240
2030.000000	77.303	-173.7501
2060.000000	77.406	-175.6984
2090.000000	77.482	-177.9267
2120.000000	77.498	179.7166
2140.000000	77.471	178.2088
2180.000000	77.348	175.6697
2200.000000	77.269	174.7090
2240.000000	77.124	173.4324
2270.000000	77.068	172.9567
2300.000000	77.087	172.6992
2330.000000	77.192	172.3918
2360.000000	77.369	171.7684
2400.000000	77.670	170.1861
2430.000000	77.901	168.4055
2470.000000	78.165	165.3500
2500.000000	78.306	162.6821
2540.000000	78.405	158.8540
2580.000000	78.399	154.9642
2620.000000	78.300	151.2190
2650.000000	78.176	148.5995
2690.000000	77.960	145.4222
2720.000000	77.770	143.2814
2760.000000	77.493	140.7360
2800.000000	77.196	138.5396
2850.000000	76.812	136.2759
2900.000000	76.430	134.4709
2950.000000	76.057	133.0474
3000.000000	75.691	131.9656
3040.000000	75.410	131.3375
3070.000000	75.207	130.9980
3110.000000	74.950	130.6984
3150.000000	74.709	130.5375
3200.000000	74.427	130.4927
3250.000000	74.163	130.6199
3300.000000	73.913	130.9174
3350.000000	73.675	131.4105
3400.000000	73.451	132.1642
3450.000000	73.249	133.2600
3500.000000	73.093	134.7943
3550.000000	73.018	136.8189
3600.000000	73.081	139.1878
3650.000000	73.335	141.4121
3700.000000	73.757	142.7185
3750.000000	74.227	142.5027
3820.000000	74.696	139.9416
3870.000000	74.804	137.6072
3950.000000	74.704	135.0338
4000.000000	74.604	134.4177
4060.000000	74.547	134.3296
4120.000000	74.584	134.4905
4180.000000	74.705	134.5502
4250.000000	74.925	134.2342
4310.000000	75.154	133.5092
4370.000000	75.402	132.2750
4440.000000	75.701	130.0576
4500.000000	75.938	127.3494
4550.000000	76.092	124.4460
4620.000000	76.178	119.4243
4680.000000	76.076	114.4716
4750.000000	75.700	108.5399
4820.000000	75.040	103.2678
4870.000000	74.423	100.3278
4940.000000	73.420	97.7052
5000.000000	72.502	96.9078
5080.000000	71.299	97.7620
5150.000000	70.337	100.0029
5220.000000	69.506	103.3115
5300.000000	68.752	107.9893
5380.000000	68.217	113.1788
5450.000000	67.923	117.8124
5520.000000	67.778	122.2788
5600.000000	67.760	126.9075
5700.000000	67.884	131.7200
5800.000000	68.067	135.3820
5900.000000	68.230	138.1464
6000.000000	68.332	140.4631
6080.000000	68.369	142.3150
6150.000000	68.387	144.0702
6220.000000	68.405	146.0028
6300.000000	68.445	148.4542
6400.000000	68.559	151.8611
6500.000000	68.776	155.4750
6600.000000	69.115	159.0342
6700.000000	69.582	162.2733
6800.000000	70.168	164.9361
6900.000000	70.862	166.7559
7000.000000	71.613	167.5273
7100.000000	72.351	167.1852
7200.000000	73.020	165.8217
7300.000000	73.580	163.6814
7400.000000	74.017	161.0971
7500.000000	74.342	158.3844
7620.000000	74.639	155.2323
7750.000000	74.900	151.9763
7880.000000	75.067	148.6107
8000.000000	75.142	145.0987
8120.000000	75.120	141.0526
8250.000000	74.926	136.1782
8380.000000	74.503	131.2469
8500.000000	73.898	127.2484
8620.000000	73.123	124.2387
8750.000000	72.151	122.2804
8850.000000	71.337	121.7423
9000.000000	70.067	122.7129
9120.000000	69.088	124.9834
9250.000000	68.131	128.5697
9380.000000	67.304	132.9753
9500.000000	66.658	137.5621
9620.000000	66.119	142.4996
9750.000000	65.655	148.1340
9880.000000	65.313	153.9882
10000.000000	65.103	159.4966
10150.000000	64.979	166.4362
10300.000000	65.019	173.3581
10440.000000	65.215	179.6493
10600.000000	65.637	-173.5873
10750.000000	66.246	-167.9120
10900.000000	67.073	-163.4063
11060.000000	68.161	-160.7937
11200.000000	69.162	-161.2901
11380.000000	70.140	-166.6780
11500.000000	70.355	-172.5561
11720.000000	69.627	177.8099
11800.000000	69.100	176.1301
12060.000000	67.364	177.9292
12200.000000	66.811	-178.6507
12410.000000	66.613	-174.7838
12500.000000	66.640	-174.5971
12650.000000	66.558	-176.5880
12800.000000	66.075	179.9146
13150.000000	63.351	178.5338
13200.000000	62.885	179.6309
13400.000000	61.140	-173.5201
13600.000000	59.763	-164.1393
13800.000000	58.794	-153.6432
14000.000000	58.168	-142.7483
14300.000000	57.781	-125.1469
14500.000000	58.121	-112.9608
14750.000000	59.213	-100.3145
15000.000000	60.633	-91.7569
15250.000000	62.259	-86.9443
15500.000000	63.966	-86.8133
15750.000000	65.344	-91.9764
16000.000000	66.048	-100.1995
16250.000000	66.237	-107.9634
16500.000000	66.377	-115.1502
16750.000000	66.558	-125.6107
17000.000000	66.138	-141.6844
17250.000000	64.451	-158.4200
17500.000000	61.457	-167.6975
17750.000000	57.663	-166.0732
18000.000000	53.769	-154.4295
18250.000000	50.631	-135.1853
18500.000000	49.375	-115.2670
18750.000000	49.540	-102.9320
19000.000000	49.467	-98.2444
19250.000000	48.484	-93.4088
19500.000000	47.214	-83.0304
19750.000000	46.618	-70.8980
20000.000000	46.502	-61.5617
