* Measurement data measured by REW V5.20.13
* Source: EXCL: Mic in at rear panel (Pink)(Realtek(R) Audio), MICROPHONE (마스), L, volume: 0.500
* Format: 256k Log Swept Sine, 1 sweep at -12.0 dBFS with no timing reference
* Dated: 2022. 10. 1 오후 4:39:52
* REW Settings:
*  C-weighting compensation: Off
*  Target level: 75.0 dB
* Note: 
* Measurement: L
* Smoothing: 1/24 octave
* Frequency Step: 1/48 octave
* Start Frequency: 20.300 Hz
*
* Freq(Hz)	SPL(dB)	Phase(degrees)
20.299999	78.324	-166.1136
20.600000	78.333	-166.3384
20.900000	78.349	-166.7642
21.200001	78.362	-167.2353
21.400000	78.366	-167.5734
21.799999	78.361	-168.2967
22.000000	78.351	-168.6688
22.400000	78.319	-169.3925
22.700001	78.290	-169.9001
23.000000	78.262	-170.3792
23.299999	78.238	-170.8463
23.600000	78.218	-171.3206
24.000000	78.196	-171.9865
24.299999	78.180	-172.5084
24.700001	78.155	-173.2000
25.000000	78.133	-173.6818
25.400000	78.108	-174.2506
25.799999	78.095	-174.7639
26.200001	78.094	-175.2934
26.500000	78.096	-175.7325
26.900000	78.088	-176.3620
27.200001	78.072	-176.8233
27.600000	78.040	-177.3575
28.000000	78.010	-177.7740
28.500000	77.992	-178.2263
29.000000	77.989	-178.7888
29.500000	77.975	-179.5203
30.000000	77.928	179.7193
30.400000	77.872	179.2145
30.700001	77.828	178.9233
31.100000	77.776	178.6241
31.500000	77.737	178.3649
32.000000	77.705	178.0018
32.500000	77.681	177.5461
33.000000	77.656	177.0103
33.500000	77.625	176.4326
34.000000	77.587	175.8556
34.500000	77.539	175.3266
35.000000	77.487	174.8877
35.500000	77.440	174.5529
36.000000	77.407	174.2838
36.500000	77.389	174.0120
37.000000	77.379	173.6890
37.500000	77.366	173.3213
38.200001	77.338	172.7890
38.700001	77.315	172.3979
39.500000	77.262	171.7089
40.000000	77.212	171.2858
40.599998	77.138	170.8794
41.200001	77.067	170.5942
41.799999	77.010	170.3351
42.500000	76.950	169.9620
43.099998	76.894	169.6106
43.700001	76.833	169.3030
44.400002	76.765	169.0177
45.000000	76.715	168.8085
45.500000	76.677	168.6627
46.200001	76.638	168.5091
46.799999	76.628	168.3319
47.500000	76.623	167.8925
48.200001	76.581	167.2930
48.700001	76.526	166.9564
49.400002	76.450	166.7157
50.000000	76.406	166.5546
50.799999	76.353	166.2061
51.500000	76.291	165.8961
52.200001	76.230	165.6571
53.000000	76.166	165.4139
53.799999	76.110	165.2475
54.500000	76.082	165.1003
55.200001	76.059	164.8428
56.000000	76.019	164.5794
57.000000	75.997	164.3664
58.000000	75.970	163.7646
59.000000	75.841	163.2610
60.000000	75.696	163.3596
60.799999	75.608	163.5118
61.500000	75.537	163.6004
62.200001	75.473	163.6489
63.000000	75.403	163.5519
64.000000	75.290	163.3228
65.000000	75.194	163.2715
66.000000	75.152	163.0459
67.000000	75.107	162.6722
68.000000	75.081	162.4688
69.000000	75.080	162.1358
70.000000	75.036	161.7389
71.000000	74.954	161.6386
72.000000	74.875	161.6876
73.000000	74.777	161.6534
74.000000	74.656	161.7144
75.000000	74.561	161.7964
76.199997	74.454	161.6373
77.500000	74.348	161.8214
78.800003	74.318	162.1221
80.000000	74.297	162.5251
81.199997	74.263	163.0597
82.500000	74.218	163.8557
83.800003	74.182	164.1628
85.000000	74.090	163.9983
86.199997	73.973	163.6505
87.500000	73.849	163.3735
88.500000	73.796	163.3173
90.000000	73.766	163.5044
91.199997	73.762	163.8683
92.500000	73.728	164.5949
93.800003	73.701	165.3915
95.000000	73.617	165.9182
96.199997	73.518	166.6511
97.500000	73.478	167.1019
98.800003	73.418	167.1579
100.000000	73.385	167.5307
101.500000	73.453	167.8412
103.000000	73.463	167.7241
104.400002	73.414	167.9875
106.000000	73.327	168.3669
107.500000	73.223	168.9927
109.000000	73.168	169.7461
110.599998	73.180	170.6857
112.000000	73.296	171.5755
113.800003	73.557	172.1808
115.000000	73.735	172.1181
117.199997	73.963	171.3156
118.000000	74.012	170.9430
120.599998	74.083	169.5278
122.000000	74.059	168.8281
124.099998	73.995	168.1021
125.000000	73.964	167.8688
126.500000	73.911	167.5230
128.000000	73.852	167.2108
131.500000	73.731	166.8617
132.000000	73.719	166.8425
134.000000	73.681	166.7493
136.000000	73.628	166.5590
138.000000	73.558	166.4224
140.000000	73.493	166.2782
143.000000	73.406	166.1600
145.000000	73.364	166.0673
147.500000	73.305	165.9332
150.000000	73.241	165.9565
152.500000	73.191	166.1059
155.000000	73.138	166.1763
157.500000	73.066	166.1427
160.000000	72.988	166.1588
162.500000	72.933	166.3037
165.000000	72.889	166.4678
167.500000	72.831	166.6201
170.000000	72.771	166.7784
172.500000	72.731	166.9182
175.000000	72.694	167.0795
177.500000	72.656	167.3236
180.000000	72.618	167.4877
182.500000	72.570	167.6341
185.000000	72.525	167.8762
187.500000	72.486	168.0717
190.000000	72.435	168.1474
192.500000	72.385	168.2607
195.000000	72.357	168.4831
197.500000	72.339	168.7133
200.000000	72.313	168.8928
203.000000	72.273	169.0413
206.000000	72.231	169.2216
209.000000	72.196	169.4676
212.000000	72.170	169.6823
214.000000	72.153	169.7934
218.000000	72.103	170.0815
220.000000	72.078	170.2585
224.000000	72.047	170.5717
227.000000	72.030	170.8120
230.000000	72.010	171.0305
233.000000	71.981	171.1824
236.000000	71.941	171.3653
240.000000	71.894	171.7595
243.000000	71.877	171.9969
247.000000	71.856	172.1830
250.000000	71.836	172.3288
254.000000	71.803	172.5862
258.000000	71.774	172.8969
262.000000	71.747	173.1868
265.000000	71.729	173.3866
269.000000	71.699	173.6463
272.000000	71.676	173.8643
276.000000	71.652	174.1854
280.000000	71.635	174.5339
285.000000	71.609	174.9048
290.000000	71.589	175.2291
295.000000	71.572	175.5494
300.000000	71.549	175.8557
304.000000	71.528	176.1528
307.000000	71.519	176.3743
311.000000	71.511	176.6246
315.000000	71.502	176.8331
320.000000	71.488	177.0630
325.000000	71.479	177.3805
330.000000	71.477	177.7200
335.000000	71.468	178.0220
340.000000	71.449	178.3077
345.000000	71.430	178.6254
350.000000	71.421	178.9556
355.000000	71.410	179.2516
360.000000	71.387	179.5408
365.000000	71.367	179.8492
370.000000	71.352	-179.8558
375.000000	71.340	-179.5973
382.000000	71.321	-179.2052
387.000000	71.304	-178.8650
395.000000	71.279	-178.3115
400.000000	71.268	-178.0269
406.000000	71.260	-177.6846
412.000000	71.248	-177.2857
418.000000	71.232	-176.9287
425.000000	71.215	-176.5544
431.000000	71.210	-176.2116
437.000000	71.208	-175.9032
444.000000	71.195	-175.5205
450.000000	71.180	-175.1895
455.000000	71.177	-174.8965
462.000000	71.174	-174.4516
468.000000	71.172	-174.1104
475.000000	71.169	-173.7569
482.000000	71.163	-173.3896
487.000000	71.160	-173.1190
494.000000	71.154	-172.7462
500.000000	71.150	-172.4079
508.000000	71.149	-171.9483
515.000000	71.150	-171.5473
522.000000	71.149	-171.1622
530.000000	71.147	-170.7312
538.000000	71.146	-170.2919
545.000000	71.147	-169.9143
552.000000	71.150	-169.5408
560.000000	71.151	-169.1085
570.000000	71.153	-168.5747
580.000000	71.152	-168.0051
590.000000	71.153	-167.4879
600.000000	71.158	-166.9798
608.000000	71.168	-166.5479
615.000000	71.175	-166.1569
622.000000	71.183	-165.7610
630.000000	71.189	-165.3068
640.000000	71.192	-164.7469
650.000000	71.197	-164.2050
660.000000	71.207	-163.6550
670.000000	71.218	-163.1131
680.000000	71.229	-162.5721
690.000000	71.240	-161.9771
700.000000	71.253	-161.4143
710.000000	71.268	-160.8561
720.000000	71.283	-160.2831
730.000000	71.301	-159.7251
740.000000	71.320	-159.1899
750.000000	71.339	-158.6377
762.000000	71.362	-157.9896
775.000000	71.389	-157.2547
788.000000	71.422	-156.5264
800.000000	71.457	-155.9067
812.000000	71.495	-155.2578
825.000000	71.536	-154.5563
838.000000	71.579	-153.8535
850.000000	71.631	-153.1951
862.000000	71.682	-152.5622
875.000000	71.736	-151.8900
885.000000	71.781	-151.3588
900.000000	71.850	-150.5855
912.000000	71.901	-149.9098
925.000000	71.963	-149.0867
938.000000	72.061	-148.3021
950.000000	72.176	-147.7927
962.000000	72.285	-147.4738
975.000000	72.376	-147.1469
988.000000	72.442	-146.7370
1000.000000	72.507	-146.3549
1015.000000	72.608	-146.0317
1030.000000	72.709	-145.6845
1044.000000	72.802	-145.3395
1060.000000	72.907	-145.0203
1075.000000	73.001	-144.7012
1090.000000	73.097	-144.4114
1106.000000	73.212	-144.1781
1120.000000	73.315	-144.0195
1138.000000	73.442	-143.8415
1150.000000	73.524	-143.7266
1172.000000	73.663	-143.5771
1180.000000	73.709	-143.5299
1206.000000	73.857	-143.3667
1220.000000	73.941	-143.3073
1241.000000	74.067	-143.2240
1250.000000	74.120	-143.1778
1265.000000	74.202	-143.1161
1280.000000	74.276	-143.0761
1315.000000	74.437	-142.9840
1320.000000	74.459	-142.9748
1340.000000	74.546	-142.9362
1360.000000	74.630	-142.8700
1380.000000	74.715	-142.7818
1400.000000	74.803	-142.6974
1430.000000	74.934	-142.6559
1450.000000	75.020	-142.6282
1475.000000	75.126	-142.5985
1500.000000	75.227	-142.5352
1525.000000	75.324	-142.4748
1550.000000	75.415	-142.3736
1575.000000	75.507	-142.2632
1600.000000	75.597	-142.1654
1625.000000	75.683	-142.0387
1650.000000	75.771	-141.8690
1675.000000	75.868	-141.6570
1700.000000	75.978	-141.3943
1725.000000	76.101	-141.1574
1750.000000	76.234	-141.0394
1775.000000	76.364	-141.0555
1800.000000	76.482	-141.1413
1825.000000	76.591	-141.2504
1850.000000	76.691	-141.3557
1875.000000	76.789	-141.4368
1900.000000	76.889	-141.5046
1925.000000	76.989	-141.5990
1950.000000	77.087	-141.7320
1975.000000	77.183	-141.9045
2000.000000	77.271	-142.0947
2030.000000	77.367	-142.3241
2060.000000	77.457	-142.5414
2090.000000	77.546	-142.7305
2120.000000	77.629	-142.8975
2140.000000	77.680	-142.9821
2180.000000	77.777	-143.0640
2200.000000	77.825	-143.0466
2240.000000	77.925	-142.8737
2270.000000	78.017	-142.6301
2300.000000	78.137	-142.3218
2330.000000	78.288	-142.0558
2360.000000	78.465	-141.9081
2400.000000	78.731	-141.9751
2430.000000	78.939	-142.2717
2470.000000	79.206	-142.9781
2500.000000	79.392	-143.7092
2540.000000	79.611	-144.8531
2580.000000	79.796	-146.1275
2620.000000	79.949	-147.4833
2650.000000	80.045	-148.5135
2690.000000	80.150	-149.8715
2720.000000	80.213	-150.8828
2760.000000	80.278	-152.1967
2800.000000	80.325	-153.4334
2850.000000	80.367	-154.8868
2900.000000	80.397	-156.2617
2950.000000	80.421	-157.5474
3000.000000	80.441	-158.8122
3040.000000	80.451	-159.8130
3070.000000	80.451	-160.5604
3110.000000	80.443	-161.5484
3150.000000	80.428	-162.4994
3200.000000	80.399	-163.6219
3250.000000	80.362	-164.6360
3300.000000	80.322	-165.5636
3350.000000	80.277	-166.4420
3400.000000	80.232	-167.2576
3450.000000	80.195	-168.0075
3500.000000	80.167	-168.7270
3550.000000	80.144	-169.4498
3600.000000	80.121	-170.1994
3650.000000	80.091	-170.9608
3700.000000	80.051	-171.6943
3750.000000	80.000	-172.3820
3820.000000	79.916	-173.2490
3870.000000	79.851	-173.8009
3950.000000	79.743	-174.5705
4000.000000	79.676	-174.9874
4060.000000	79.597	-175.4555
4120.000000	79.519	-175.8719
4180.000000	79.442	-176.2369
4250.000000	79.356	-176.6322
4310.000000	79.286	-176.9374
4370.000000	79.212	-177.2174
4440.000000	79.120	-177.5422
4500.000000	79.041	-177.8267
4550.000000	78.977	-178.0506
4620.000000	78.890	-178.3620
4680.000000	78.815	-178.6253
4750.000000	78.729	-178.9138
4820.000000	78.639	-179.1761
4870.000000	78.572	-179.3446
4940.000000	78.478	-179.5594
5000.000000	78.397	-179.7338
5080.000000	78.289	-179.9698
5150.000000	78.193	179.8387
5220.000000	78.093	179.6844
5300.000000	77.977	179.5716
5380.000000	77.862	179.5533
5450.000000	77.767	179.6427
5520.000000	77.683	179.8205
5600.000000	77.616	-179.9350
5700.000000	77.565	-179.7585
5800.000000	77.519	-179.7645
5900.000000	77.471	-179.8259
6000.000000	77.424	-179.9595
6080.000000	77.381	179.8941
6150.000000	77.340	179.7918
6220.000000	77.303	179.7346
6300.000000	77.267	179.7140
6400.000000	77.231	179.7142
6500.000000	77.211	179.7100
6600.000000	77.207	179.7131
6700.000000	77.222	179.6800
6800.000000	77.263	179.5844
6900.000000	77.340	179.4031
7000.000000	77.455	179.1390
7100.000000	77.595	178.7817
7200.000000	77.760	178.2831
7300.000000	77.951	177.5485
7400.000000	78.165	176.5032
7500.000000	78.393	175.0895
7620.000000	78.674	172.8423
7750.000000	78.959	169.6572
7880.000000	79.124	165.7195
8000.000000	79.162	161.4910
8120.000000	79.098	156.7893
8250.000000	78.897	151.2300
8380.000000	78.533	145.2839
8500.000000	78.020	139.5975
8620.000000	77.292	134.0268
8750.000000	76.227	128.7653
8850.000000	75.223	125.7726
9000.000000	73.510	123.7655
9120.000000	72.067	124.5567
9250.000000	70.555	127.7095
9380.000000	69.213	132.9916
9500.000000	68.217	139.3829
9620.000000	67.533	146.6851
9750.000000	67.221	154.6856
9880.000000	67.335	161.5760
10000.000000	67.677	166.0992
10150.000000	68.157	168.8942
10300.000000	68.467	169.2114
10440.000000	68.509	168.4601
10600.000000	68.296	167.6466
10750.000000	67.928	167.6368
10900.000000	67.494	168.5045
11060.000000	67.028	170.2466
11200.000000	66.644	172.3401
11380.000000	66.204	175.5579
11500.000000	65.953	177.9316
11720.000000	65.587	-177.3506
11800.000000	65.487	-175.5312
12060.000000	65.275	-169.4156
12200.000000	65.218	-166.0589
12410.000000	65.210	-161.0219
12500.000000	65.240	-158.8888
12650.000000	65.337	-155.3800
12800.000000	65.498	-151.9194
13150.000000	66.160	-144.3353
13200.000000	66.289	-143.3495
13400.000000	66.900	-139.7410
13600.000000	67.673	-136.7654
13800.000000	68.630	-134.7003
14000.000000	69.771	-133.9517
14300.000000	71.726	-136.4444
14500.000000	73.073	-141.4483
14750.000000	74.486	-152.5269
15000.000000	75.184	-168.0734
15250.000000	74.987	175.5688
15500.000000	74.142	161.8745
15750.000000	73.041	151.5371
16000.000000	71.900	143.4525
16250.000000	70.757	136.4379
16500.000000	69.559	129.9204
16750.000000	68.229	123.9775
17000.000000	66.728	119.1261
17250.000000	65.086	115.8779
17500.000000	63.387	114.3973
17750.000000	61.702	114.5862
18000.000000	60.066	116.3438
18250.000000	58.521	119.3940
18500.000000	57.114	123.4308
18750.000000	55.819	128.2330
19000.000000	54.613	133.7669
19250.000000	53.518	140.0071
19500.000000	52.498	146.8576
19750.000000	51.642	153.5948
20000.000000	51.151	158.1112
