* Measurement data measured by REW V5.20.13
* Source: EXCL: Mic in at rear panel (Pink)(Realtek(R) Audio), MICROPHONE (마스), L, volume: 0.500
* Format: 256k Log Swept Sine, 1 sweep at -12.0 dBFS with no timing reference
* Dated: 2022. 10. 1 오후 5:02:07
* REW Settings:
*  C-weighting compensation: Off
*  Target level: 75.0 dB
* Note: 
* Measurement: L_AET07
* Smoothing: 1/24 octave
* Frequency Step: 1/48 octave
* Start Frequency: 20.300 Hz
*
* Freq(Hz)	SPL(dB)	Phase(degrees)
20.299999	78.544	-165.3279
20.600000	78.575	-165.4497
20.900000	78.635	-165.7289
21.200001	78.684	-166.1579
21.400000	78.706	-166.5153
21.799999	78.723	-167.3322
22.000000	78.719	-167.7563
22.400000	78.695	-168.5833
22.700001	78.668	-169.1920
23.000000	78.638	-169.8205
23.299999	78.601	-170.4804
23.600000	78.552	-171.1440
24.000000	78.468	-171.9457
24.299999	78.400	-172.4094
24.700001	78.322	-172.8223
25.000000	78.287	-173.0492
25.400000	78.273	-173.3996
25.799999	78.272	-173.9273
26.200001	78.252	-174.5633
26.500000	78.219	-174.9747
26.900000	78.168	-175.2943
27.200001	78.147	-175.3710
27.600000	78.167	-175.4332
28.000000	78.231	-175.7458
28.500000	78.305	-176.7069
29.000000	78.298	-178.0055
29.500000	78.204	-179.0970
30.000000	78.082	-179.6943
30.400000	78.000	-179.8848
30.700001	77.955	-179.9281
31.100000	77.917	-179.9061
31.500000	77.911	-179.8455
32.000000	77.955	-179.9039
32.500000	78.031	179.5881
33.000000	78.064	178.5722
33.500000	78.005	177.4611
34.000000	77.875	176.8359
34.500000	77.764	176.8405
35.000000	77.734	177.0654
35.500000	77.767	176.9756
36.000000	77.796	176.4222
36.500000	77.779	175.6147
37.000000	77.712	174.8305
37.500000	77.610	174.2258
38.200001	77.450	173.8206
38.700001	77.358	173.8487
39.500000	77.312	174.0356
40.000000	77.336	173.9138
40.599998	77.366	173.3868
41.200001	77.351	172.6439
41.799999	77.285	172.0480
42.500000	77.200	171.8031
43.099998	77.165	171.7908
43.700001	77.154	171.6867
44.400002	77.132	171.4880
45.000000	77.117	171.3760
45.500000	77.123	171.1999
46.200001	77.127	170.5872
46.799999	77.079	169.8645
47.500000	76.975	169.2318
48.200001	76.876	168.8591
48.700001	76.817	168.6390
49.400002	76.739	168.4290
50.000000	76.694	168.3987
50.799999	76.689	168.3035
51.500000	76.692	167.9525
52.200001	76.660	167.5583
53.000000	76.597	167.3803
53.799999	76.552	167.4516
54.500000	76.538	167.5089
55.200001	76.532	167.4066
56.000000	76.506	167.1004
57.000000	76.434	166.7271
58.000000	76.357	166.4310
59.000000	76.275	166.1274
60.000000	76.199	165.8944
60.799999	76.146	165.6481
61.500000	76.091	165.4229
62.200001	76.033	165.2854
63.000000	75.979	165.1841
64.000000	75.920	165.0387
65.000000	75.875	164.9343
66.000000	75.845	164.7294
67.000000	75.800	164.5145
68.000000	75.767	164.4074
69.000000	75.737	164.1610
70.000000	75.675	163.9334
71.000000	75.612	163.8190
72.000000	75.546	163.6162
73.000000	75.462	163.4246
74.000000	75.382	163.2960
75.000000	75.310	163.1794
76.199997	75.239	163.1516
77.500000	75.193	163.1873
78.800003	75.160	163.3304
80.000000	75.160	163.4404
81.199997	75.149	163.2026
82.500000	75.078	162.8470
83.800003	74.986	162.5320
85.000000	74.893	162.3062
86.199997	74.812	162.2200
87.500000	74.738	162.2379
88.500000	74.686	162.3999
90.000000	74.634	162.8183
91.199997	74.603	163.1237
92.500000	74.578	163.3463
93.800003	74.545	163.2670
95.000000	74.488	163.1152
96.199997	74.433	163.0080
97.500000	74.389	162.8663
98.800003	74.348	162.7198
100.000000	74.311	162.6295
101.500000	74.259	162.5760
103.000000	74.193	162.5943
104.400002	74.128	162.6978
106.000000	74.069	162.8234
107.500000	74.020	162.8555
109.000000	73.977	162.9981
110.599998	73.954	163.1877
112.000000	73.932	163.3082
113.800003	73.879	163.3330
115.000000	73.822	163.2637
117.199997	73.716	162.9519
118.000000	73.678	162.7674
120.599998	73.568	162.8543
122.000000	73.583	163.2314
124.099998	73.585	163.5745
125.000000	73.561	163.7013
126.500000	73.497	163.8616
128.000000	73.425	163.9571
131.500000	73.327	163.9944
132.000000	73.318	164.0277
134.000000	73.283	164.3131
136.000000	73.247	164.6332
138.000000	73.198	164.8478
140.000000	73.165	164.9216
143.000000	73.102	164.7947
145.000000	73.051	164.7771
147.500000	72.991	164.7763
150.000000	72.912	165.0399
152.500000	72.821	165.6691
155.000000	72.737	166.1302
157.500000	72.650	166.2555
160.000000	72.622	166.4958
162.500000	72.633	166.7377
165.000000	72.638	167.0937
167.500000	72.605	167.4977
170.000000	72.530	168.0403
172.500000	72.460	168.3871
175.000000	72.409	168.6476
177.500000	72.403	169.3734
180.000000	72.403	170.3379
182.500000	72.368	170.9917
185.000000	72.347	171.2617
187.500000	72.406	171.4671
190.000000	72.465	171.4662
192.500000	72.455	171.3571
195.000000	72.462	171.2466
197.500000	72.511	171.2652
200.000000	72.536	171.5207
203.000000	72.490	171.6721
206.000000	72.437	171.5793
209.000000	72.450	171.4156
212.000000	72.439	171.3347
214.000000	72.416	171.4145
218.000000	72.375	171.7603
220.000000	72.349	171.9392
224.000000	72.288	172.0430
227.000000	72.248	172.0017
230.000000	72.225	172.1163
233.000000	72.206	172.3623
236.000000	72.190	172.6566
240.000000	72.171	172.9900
243.000000	72.137	173.1187
247.000000	72.082	173.1769
250.000000	72.056	173.2666
254.000000	72.033	173.6694
258.000000	72.003	174.0654
262.000000	71.969	174.2628
265.000000	71.949	174.3917
269.000000	71.928	174.6356
272.000000	71.898	174.8555
276.000000	71.862	175.1678
280.000000	71.849	175.4351
285.000000	71.820	175.7873
290.000000	71.799	176.1904
295.000000	71.784	176.5184
300.000000	71.764	176.8534
304.000000	71.747	177.1968
307.000000	71.733	177.4582
311.000000	71.718	177.7423
315.000000	71.704	177.9237
320.000000	71.694	178.2147
325.000000	71.691	178.6089
330.000000	71.685	178.9482
335.000000	71.682	179.2299
340.000000	71.676	179.5185
345.000000	71.664	179.8441
350.000000	71.655	-179.8371
355.000000	71.645	-179.5246
360.000000	71.634	-179.2084
365.000000	71.622	-178.9128
370.000000	71.614	-178.6287
375.000000	71.601	-178.3430
382.000000	71.583	-177.9413
387.000000	71.571	-177.6815
395.000000	71.550	-177.2279
400.000000	71.532	-176.9198
406.000000	71.512	-176.5735
412.000000	71.499	-176.2408
418.000000	71.494	-175.8750
425.000000	71.487	-175.4419
431.000000	71.473	-175.0773
437.000000	71.458	-174.6955
444.000000	71.450	-174.2592
450.000000	71.442	-173.9386
455.000000	71.436	-173.6901
462.000000	71.430	-173.3003
468.000000	71.426	-172.9653
475.000000	71.417	-172.5558
482.000000	71.413	-172.1582
487.000000	71.413	-171.9190
494.000000	71.410	-171.5524
500.000000	71.406	-171.1808
508.000000	71.400	-170.6710
515.000000	71.399	-170.2570
522.000000	71.405	-169.8787
530.000000	71.408	-169.4899
538.000000	71.402	-169.0749
545.000000	71.395	-168.6739
552.000000	71.396	-168.2516
560.000000	71.404	-167.7552
570.000000	71.404	-167.1658
580.000000	71.402	-166.5653
590.000000	71.403	-166.0335
600.000000	71.409	-165.5082
608.000000	71.415	-165.0450
615.000000	71.421	-164.6501
622.000000	71.431	-164.2631
630.000000	71.440	-163.8148
640.000000	71.450	-163.2544
650.000000	71.460	-162.6771
660.000000	71.462	-162.1237
670.000000	71.464	-161.5698
680.000000	71.476	-160.9962
690.000000	71.494	-160.3991
700.000000	71.505	-159.8097
710.000000	71.514	-159.2459
720.000000	71.531	-158.6855
730.000000	71.558	-158.1262
740.000000	71.586	-157.5644
750.000000	71.607	-156.9734
762.000000	71.629	-156.2251
775.000000	71.663	-155.4358
788.000000	71.701	-154.6887
800.000000	71.736	-153.9830
812.000000	71.775	-153.2810
825.000000	71.821	-152.5147
838.000000	71.867	-151.7725
850.000000	71.916	-151.1267
862.000000	71.966	-150.4675
875.000000	72.014	-149.7733
885.000000	72.054	-149.2763
900.000000	72.125	-148.4748
912.000000	72.183	-147.7603
925.000000	72.261	-146.8893
938.000000	72.377	-146.0441
950.000000	72.494	-145.5156
962.000000	72.595	-145.1861
975.000000	72.693	-144.8591
988.000000	72.792	-144.4976
1000.000000	72.875	-144.1115
1015.000000	72.961	-143.6403
1030.000000	73.056	-143.2492
1044.000000	73.147	-142.8837
1060.000000	73.250	-142.4650
1075.000000	73.356	-142.1392
1090.000000	73.466	-141.8507
1106.000000	73.583	-141.5741
1120.000000	73.684	-141.3711
1138.000000	73.816	-141.1591
1150.000000	73.900	-141.0157
1172.000000	74.046	-140.7778
1180.000000	74.099	-140.7182
1206.000000	74.267	-140.5793
1220.000000	74.355	-140.5149
1241.000000	74.486	-140.4381
1250.000000	74.540	-140.4021
1265.000000	74.627	-140.3447
1280.000000	74.712	-140.2993
1315.000000	74.898	-140.1891
1320.000000	74.925	-140.1670
1340.000000	75.028	-140.0931
1360.000000	75.122	-140.0653
1380.000000	75.211	-140.0383
1400.000000	75.305	-139.9829
1430.000000	75.446	-139.8881
1450.000000	75.540	-139.8360
1475.000000	75.654	-139.7598
1500.000000	75.765	-139.6869
1525.000000	75.875	-139.6240
1550.000000	75.985	-139.5391
1575.000000	76.092	-139.4572
1600.000000	76.200	-139.3948
1625.000000	76.308	-139.3307
1650.000000	76.416	-139.2635
1675.000000	76.527	-139.2062
1700.000000	76.638	-139.1549
1725.000000	76.748	-139.1103
1750.000000	76.857	-139.1017
1775.000000	76.964	-139.1106
1800.000000	77.071	-139.1296
1825.000000	77.178	-139.1352
1850.000000	77.285	-139.1429
1875.000000	77.392	-139.1758
1900.000000	77.501	-139.2417
1925.000000	77.609	-139.3333
1950.000000	77.717	-139.4368
1975.000000	77.825	-139.5432
2000.000000	77.934	-139.6740
2030.000000	78.060	-139.8860
2060.000000	78.184	-140.1212
2090.000000	78.306	-140.3741
2120.000000	78.427	-140.6457
2140.000000	78.508	-140.8380
2180.000000	78.668	-141.2726
2200.000000	78.744	-141.5031
2240.000000	78.893	-141.9753
2270.000000	79.003	-142.3669
2300.000000	79.108	-142.8026
2330.000000	79.208	-143.2572
2360.000000	79.304	-143.7121
2400.000000	79.431	-144.3603
2430.000000	79.524	-144.8835
2470.000000	79.642	-145.6021
2500.000000	79.727	-146.1552
2540.000000	79.835	-146.9263
2580.000000	79.933	-147.7232
2620.000000	80.020	-148.5322
2650.000000	80.082	-149.1498
2690.000000	80.159	-149.9913
2720.000000	80.209	-150.6175
2760.000000	80.270	-151.4625
2800.000000	80.323	-152.3152
2850.000000	80.376	-153.3693
2900.000000	80.419	-154.4144
2950.000000	80.450	-155.4543
3000.000000	80.471	-156.4653
3040.000000	80.482	-157.2510
3070.000000	80.488	-157.8294
3110.000000	80.491	-158.5817
3150.000000	80.490	-159.3087
3200.000000	80.481	-160.1873
3250.000000	80.465	-161.0264
3300.000000	80.444	-161.8153
3350.000000	80.417	-162.5715
3400.000000	80.387	-163.2971
3450.000000	80.359	-163.9789
3500.000000	80.333	-164.6133
3550.000000	80.307	-165.2012
3600.000000	80.278	-165.7569
3650.000000	80.246	-166.2823
3700.000000	80.212	-166.7585
3750.000000	80.178	-167.1830
3820.000000	80.126	-167.6994
3870.000000	80.088	-168.0029
3950.000000	80.037	-168.3809
4000.000000	80.015	-168.6064
4060.000000	79.996	-168.9145
4120.000000	79.980	-169.2693
4180.000000	79.964	-169.6450
4250.000000	79.942	-170.1039
4310.000000	79.915	-170.4882
4370.000000	79.879	-170.8672
4440.000000	79.830	-171.3181
4500.000000	79.786	-171.7163
4550.000000	79.748	-172.0578
4620.000000	79.692	-172.5369
4680.000000	79.641	-172.9371
4750.000000	79.577	-173.4044
4820.000000	79.509	-173.8649
4870.000000	79.457	-174.1815
4940.000000	79.380	-174.5978
5000.000000	79.315	-174.9441
5080.000000	79.228	-175.4121
5150.000000	79.148	-175.8164
5220.000000	79.062	-176.2093
5300.000000	78.958	-176.6152
5380.000000	78.851	-176.9569
5450.000000	78.760	-177.2065
5520.000000	78.675	-177.4254
5600.000000	78.583	-177.6872
5700.000000	78.465	-178.0734
5800.000000	78.328	-178.4218
5900.000000	78.187	-178.6711
6000.000000	78.054	-178.8258
6080.000000	77.947	-178.8872
6150.000000	77.855	-178.8860
6220.000000	77.769	-178.8376
6300.000000	77.678	-178.7278
6400.000000	77.580	-178.5114
6500.000000	77.503	-178.2228
6600.000000	77.448	-177.9037
6700.000000	77.418	-177.6211
6800.000000	77.418	-177.4052
6900.000000	77.456	-177.2409
7000.000000	77.533	-177.1381
7100.000000	77.641	-177.0938
7200.000000	77.780	-177.1562
7300.000000	77.949	-177.4039
7400.000000	78.148	-177.9209
7500.000000	78.372	-178.7871
7620.000000	78.670	179.6200
7750.000000	78.998	177.1064
7880.000000	79.226	173.7206
8000.000000	79.333	169.8370
8120.000000	79.338	165.2695
8250.000000	79.197	159.6198
8380.000000	78.854	153.3991
8500.000000	78.310	147.4704
8620.000000	77.506	141.8981
8750.000000	76.337	137.1084
8850.000000	75.265	134.8287
9000.000000	73.505	134.1943
9120.000000	72.081	136.0761
9250.000000	70.640	140.2578
9380.000000	69.400	146.3138
9500.000000	68.512	153.2266
9620.000000	67.950	160.9175
9750.000000	67.768	169.2289
9880.000000	67.996	176.3512
10000.000000	68.422	-178.9776
10150.000000	68.975	-176.0369
10300.000000	69.343	-175.5192
10440.000000	69.436	-175.9434
10600.000000	69.284	-176.2657
10750.000000	68.996	-175.7453
10900.000000	68.655	-174.3085
11060.000000	68.300	-171.9382
11200.000000	68.031	-169.3188
11380.000000	67.764	-165.4141
11500.000000	67.645	-162.5464
11720.000000	67.567	-156.9211
11800.000000	67.586	-154.8099
12060.000000	67.816	-147.9236
12200.000000	68.040	-144.2504
12410.000000	68.489	-138.9219
12500.000000	68.730	-136.7239
12650.000000	69.219	-133.2329
12800.000000	69.836	-130.0294
13150.000000	71.870	-124.3913
13200.000000	72.243	-123.9188
13400.000000	73.968	-123.4947
13600.000000	76.000	-126.7712
13800.000000	77.993	-136.2318
14000.000000	79.291	-153.2458
14300.000000	78.915	176.4774
14500.000000	77.369	162.6031
14750.000000	75.026	154.4152
15000.000000	73.028	152.2222
15250.000000	71.594	152.4056
15500.000000	70.682	153.0275
15750.000000	70.177	153.0337
16000.000000	69.899	151.7174
16250.000000	69.678	148.6567
16500.000000	69.345	143.8561
16750.000000	68.750	137.9742
17000.000000	67.823	132.1969
17250.000000	66.611	127.7015
17500.000000	65.249	125.1520
17750.000000	63.863	124.5479
18000.000000	62.534	125.4807
18250.000000	61.317	127.5615
18500.000000	60.235	130.4782
18750.000000	59.296	133.7380
19000.000000	58.477	136.8991
19250.000000	57.736	139.9095
19500.000000	57.028	142.8611
19750.000000	56.417	145.4930
20000.000000	56.034	147.0951
