* Measurement data measured by REW V5.20.5
* Source: Input device not selected, no input selected, L, volume: no control
* Format: 128k Log Swept Sine, 1 sweep at -12.0 dBFS with no timing reference
* Dated: 22-Feb-2023 19:57:29
* REW Settings:
*  C-weighting compensation: Off
*  Target level: 75.0 dB
* Note: ; 
* Measurement: Cowon EG2 R
* Smoothing: 1/24 octave
* Frequency Step: 1/48 octave
* Start Frequency: 20.300 Hz
*
* Freq(Hz)	SPL(dB)	Phase(degrees)
20.299999	91.296	-133.7760
20.600000	91.302	-134.2919
20.900000	91.303	-135.2915
21.200001	91.275	-136.2140
21.400000	91.242	-136.7272
21.799999	91.167	-137.5019
22.000000	91.134	-137.7694
22.400000	91.095	-138.1474
22.700001	91.098	-138.4228
23.000000	91.122	-138.7972
23.299999	91.157	-139.3209
23.600000	91.191	-139.9869
24.000000	91.219	-140.9966
24.299999	91.227	-141.7508
24.700001	91.227	-142.6525
25.000000	91.227	-143.2342
25.400000	91.238	-143.9194
25.799999	91.262	-144.5712
26.200001	91.291	-145.2334
26.500000	91.309	-145.7320
26.900000	91.324	-146.3674
27.200001	91.330	-146.8040
27.600000	91.337	-147.3346
28.000000	91.347	-147.8381
28.500000	91.364	-148.4953
29.000000	91.371	-149.2060
29.500000	91.363	-149.9154
30.000000	91.346	-150.5559
30.400000	91.335	-151.0219
30.700001	91.331	-151.3681
31.100000	91.328	-151.8554
31.500000	91.324	-152.3817
32.000000	91.309	-153.0558
32.500000	91.287	-153.6823
33.000000	91.270	-154.2393
33.500000	91.267	-154.7713
34.000000	91.279	-155.3339
34.500000	91.294	-155.9353
35.000000	91.303	-156.5377
35.500000	91.306	-157.1000
36.000000	91.307	-157.6039
36.500000	91.309	-158.0518
37.000000	91.315	-158.4596
37.500000	91.324	-158.8492
38.200001	91.339	-159.4036
38.700001	91.348	-159.8244
39.500000	91.356	-160.5531
40.000000	91.356	-161.0326
40.599998	91.349	-161.6013
41.200001	91.339	-162.1468
41.799999	91.331	-162.6862
42.500000	91.317	-163.3061
43.099998	91.302	-163.7681
43.700001	91.297	-164.1508
44.400002	91.310	-164.6208
45.000000	91.319	-165.1062
45.500000	91.316	-165.5061
46.200001	91.308	-165.9623
46.799999	91.310	-166.3106
47.500000	91.314	-166.7742
48.200001	91.307	-167.2210
48.700001	91.304	-167.4796
49.400002	91.315	-167.8633
50.000000	91.323	-168.3054
50.799999	91.307	-168.9216
51.500000	91.288	-169.3242
52.200001	91.288	-169.7053
53.000000	91.293	-170.2832
53.799999	91.278	-170.8740
54.500000	91.262	-171.2800
55.200001	91.257	-171.6522
56.000000	91.256	-172.1129
57.000000	91.250	-172.6573
58.000000	91.249	-173.1930
59.000000	91.235	-173.7621
60.000000	91.213	-174.2282
60.799999	91.205	-174.5803
61.500000	91.198	-174.9438
62.200001	91.184	-175.3346
63.000000	91.160	-175.7265
64.000000	91.143	-176.1127
65.000000	91.147	-176.5455
66.000000	91.150	-177.0480
67.000000	91.149	-177.5096
68.000000	91.150	-177.9307
69.000000	91.152	-178.3603
70.000000	91.145	-178.7903
71.000000	91.132	-179.1804
72.000000	91.121	-179.5743
73.000000	91.105	-179.9900
74.000000	91.089	179.6212
75.000000	91.079	179.2461
76.199997	91.073	178.7650
77.500000	91.061	178.2310
78.800003	91.044	177.7498
80.000000	91.030	177.3412
81.199997	91.016	176.9324
82.500000	91.002	176.5042
83.800003	90.992	176.0613
85.000000	90.986	175.6316
86.199997	90.979	175.1674
87.500000	90.960	174.6880
88.500000	90.944	174.3717
90.000000	90.924	173.9301
91.199997	90.910	173.5536
92.500000	90.891	173.1272
93.800003	90.871	172.7141
95.000000	90.856	172.3318
96.199997	90.844	171.9420
97.500000	90.832	171.5137
98.800003	90.817	171.0994
100.000000	90.802	170.7440
101.500000	90.785	170.3249
103.000000	90.769	169.9119
104.400002	90.753	169.5195
106.000000	90.733	169.0764
107.500000	90.715	168.6681
109.000000	90.696	168.2544
110.599998	90.675	167.8219
112.000000	90.657	167.4483
113.800003	90.634	166.9697
115.000000	90.617	166.6644
117.199997	90.584	166.1694
118.000000	90.573	166.0082
120.599998	90.549	165.3752
122.000000	90.526	164.9681
124.099998	90.487	164.4076
125.000000	90.471	164.1851
126.500000	90.448	163.8333
128.000000	90.428	163.4848
131.500000	90.385	162.6286
132.000000	90.378	162.5041
134.000000	90.350	162.0191
136.000000	90.321	161.5664
138.000000	90.292	161.1397
140.000000	90.260	160.7275
143.000000	90.211	160.0841
145.000000	90.181	159.6295
147.500000	90.153	159.0405
150.000000	90.122	158.4556
152.500000	90.077	157.9895
155.000000	90.031	157.5466
157.500000	89.981	157.0562
160.000000	89.936	156.5751
162.500000	89.894	156.0766
165.000000	89.850	155.5739
167.500000	89.802	155.0900
170.000000	89.752	154.6549
172.500000	89.707	154.2211
175.000000	89.666	153.7672
177.500000	89.633	153.3150
180.000000	89.601	152.8873
182.500000	89.567	152.4670
185.000000	89.528	152.0510
187.500000	89.489	151.6525
190.000000	89.450	151.2522
192.500000	89.407	150.8326
195.000000	89.361	150.4041
197.500000	89.315	149.9834
200.000000	89.270	149.5851
203.000000	89.217	149.1339
206.000000	89.162	148.6950
209.000000	89.102	148.2432
212.000000	89.039	147.7961
214.000000	88.997	147.4919
218.000000	88.915	146.8976
220.000000	88.873	146.6401
224.000000	88.792	146.1488
227.000000	88.732	145.7408
230.000000	88.672	145.3138
233.000000	88.603	144.8885
236.000000	88.530	144.4733
240.000000	88.443	143.9494
243.000000	88.384	143.5781
247.000000	88.306	143.0884
250.000000	88.247	142.7389
254.000000	88.169	142.2687
258.000000	88.091	141.7398
262.000000	88.010	141.2651
265.000000	87.951	140.9620
269.000000	87.875	140.5446
272.000000	87.818	140.2115
276.000000	87.740	139.7706
280.000000	87.659	139.3618
285.000000	87.558	138.9169
290.000000	87.458	138.4542
295.000000	87.362	137.8865
300.000000	87.266	137.3865
304.000000	87.185	137.0128
307.000000	87.125	136.7314
311.000000	87.045	136.3705
315.000000	86.963	136.0377
320.000000	86.857	135.6775
325.000000	86.749	135.3221
330.000000	86.640	134.9242
335.000000	86.533	134.5535
340.000000	86.426	134.2697
345.000000	86.314	134.0391
350.000000	86.194	133.7839
355.000000	86.065	133.5341
360.000000	85.948	133.3576
365.000000	85.843	133.3084
370.000000	85.749	133.3477
375.000000	85.673	133.3759
382.000000	85.607	133.2812
387.000000	85.575	133.0790
395.000000	85.505	132.4201
400.000000	85.435	131.9366
406.000000	85.328	131.3860
412.000000	85.210	130.8604
418.000000	85.092	130.3416
425.000000	84.954	129.8406
431.000000	84.837	129.4916
437.000000	84.717	129.2125
444.000000	84.572	128.8943
450.000000	84.450	128.6244
455.000000	84.349	128.4410
462.000000	84.212	128.2385
468.000000	84.103	128.0553
475.000000	83.975	127.8345
482.000000	83.843	127.6141
487.000000	83.746	127.4836
494.000000	83.606	127.3405
500.000000	83.493	127.2045
508.000000	83.350	127.0369
515.000000	83.222	126.9287
522.000000	83.092	126.8083
530.000000	82.951	126.6668
538.000000	82.813	126.5735
545.000000	82.683	126.5258
552.000000	82.551	126.4661
560.000000	82.402	126.4127
570.000000	82.206	126.3953
580.000000	82.012	126.3950
590.000000	81.830	126.3938
600.000000	81.648	126.4020
608.000000	81.507	126.4208
615.000000	81.389	126.4453
622.000000	81.275	126.4642
630.000000	81.144	126.4460
640.000000	80.971	126.3205
650.000000	80.770	126.1136
660.000000	80.507	125.9864
670.000000	80.193	126.4514
680.000000	79.946	127.5634
690.000000	79.832	128.5674
700.000000	79.752	129.1303
710.000000	79.638	129.4522
720.000000	79.501	129.6972
730.000000	79.359	129.9341
740.000000	79.220	130.2230
750.000000	79.072	130.5514
762.000000	78.884	130.9483
775.000000	78.685	131.4109
788.000000	78.492	132.0108
800.000000	78.316	132.5800
812.000000	78.147	133.0609
825.000000	77.956	133.6102
838.000000	77.760	134.2681
850.000000	77.585	134.8747
862.000000	77.411	135.4488
875.000000	77.204	136.0734
885.000000	77.041	136.5592
900.000000	76.780	137.3165
912.000000	76.543	138.0267
925.000000	76.243	139.1568
938.000000	75.922	141.1888
950.000000	75.760	144.0854
962.000000	75.857	146.8050
975.000000	76.087	147.9869
988.000000	76.185	147.7194
1000.000000	76.128	147.3348
1015.000000	75.976	147.3176
1030.000000	75.816	147.6673
1044.000000	75.664	148.1932
1060.000000	75.487	148.8942
1075.000000	75.302	149.6573
1090.000000	75.095	150.3843
1106.000000	74.896	151.0939
1120.000000	74.721	151.8120
1138.000000	74.478	152.8795
1150.000000	74.320	153.6536
1172.000000	74.042	155.1887
1180.000000	73.941	155.7640
1206.000000	73.617	157.5997
1220.000000	73.451	158.7011
1241.000000	73.221	160.5878
1250.000000	73.132	161.4959
1265.000000	72.985	163.0291
1280.000000	72.839	164.5995
1315.000000	72.532	168.8425
1320.000000	72.489	169.4843
1340.000000	72.334	172.2296
1360.000000	72.219	175.3101
1380.000000	72.160	178.5527
1400.000000	72.176	-178.0644
1430.000000	72.280	-172.7415
1450.000000	72.434	-169.0190
1475.000000	72.754	-164.5148
1500.000000	73.192	-160.2351
1525.000000	73.736	-156.5018
1550.000000	74.345	-153.4418
1575.000000	74.990	-151.1673
1600.000000	75.657	-149.7472
1625.000000	76.329	-149.1108
1650.000000	76.975	-149.1962
1675.000000	77.559	-150.1076
1700.000000	78.070	-151.6840
1725.000000	78.500	-153.6792
1750.000000	78.842	-155.9875
1775.000000	79.090	-158.4068
1800.000000	79.249	-160.7654
1825.000000	79.330	-163.0187
1850.000000	79.355	-165.0965
1875.000000	79.331	-166.9000
1900.000000	79.264	-168.4731
1925.000000	79.168	-169.7858
1950.000000	79.051	-170.8431
1975.000000	78.922	-171.7049
2000.000000	78.785	-172.3429
2030.000000	78.622	-172.8303
2060.000000	78.462	-173.0825
2090.000000	78.295	-173.1779
2120.000000	78.125	-173.1342
2140.000000	78.018	-172.9904
2180.000000	77.811	-172.4382
2200.000000	77.710	-172.0595
2240.000000	77.519	-171.1612
2270.000000	77.384	-170.3019
2300.000000	77.264	-169.2334
2330.000000	77.167	-168.0405
2360.000000	77.090	-166.8236
2400.000000	77.019	-165.1066
2430.000000	76.982	-163.7797
2470.000000	76.969	-161.9725
2500.000000	76.985	-160.5926
2540.000000	77.029	-158.7584
2580.000000	77.098	-156.9615
2620.000000	77.200	-155.1962
2650.000000	77.293	-153.8979
2690.000000	77.434	-152.1987
2720.000000	77.552	-150.9729
2760.000000	77.731	-149.4138
2800.000000	77.936	-148.0194
2850.000000	78.210	-146.4727
2900.000000	78.504	-145.1337
2950.000000	78.820	-144.0121
3000.000000	79.150	-143.1366
3040.000000	79.423	-142.5995
3070.000000	79.628	-142.3110
3110.000000	79.900	-142.0797
3150.000000	80.165	-142.0243
3200.000000	80.480	-142.2009
3250.000000	80.773	-142.5893
3300.000000	81.041	-143.1095
3350.000000	81.274	-143.8274
3400.000000	81.471	-144.6586
3450.000000	81.635	-145.4890
3500.000000	81.756	-146.2878
3550.000000	81.827	-146.9373
3600.000000	81.892	-147.2154
3650.000000	81.982	-147.3607
3700.000000	82.069	-147.4366
3750.000000	82.179	-147.4080
3820.000000	82.336	-147.6765
3870.000000	82.420	-147.8464
3950.000000	82.562	-147.6832
4000.000000	82.673	-147.3765
4060.000000	82.832	-146.9063
4120.000000	83.021	-146.4043
4180.000000	83.237	-145.9294
4250.000000	83.515	-145.3705
4310.000000	83.777	-144.8837
4370.000000	84.069	-144.3896
4440.000000	84.456	-143.8299
4500.000000	84.834	-143.4367
4550.000000	85.183	-143.2054
4620.000000	85.728	-143.0744
4680.000000	86.252	-143.2213
4750.000000	86.935	-143.7973
4820.000000	87.696	-144.9944
4870.000000	88.279	-146.3789
4940.000000	89.137	-149.2885
5000.000000	89.891	-152.9303
5080.000000	90.844	-159.8634
5150.000000	91.505	-168.0743
5220.000000	91.869	-178.0198
5300.000000	91.805	169.6620
5380.000000	91.217	158.1263
5450.000000	90.362	149.8250
5520.000000	89.311	143.5600
5600.000000	88.019	138.6997
5700.000000	86.442	135.3032
5800.000000	85.002	133.9627
5900.000000	83.717	133.9692
6000.000000	82.576	134.8553
6080.000000	81.753	136.0294
6150.000000	81.088	137.3346
6220.000000	80.468	138.9089
6300.000000	79.820	141.0373
6400.000000	79.104	144.1128
6500.000000	78.503	147.5769
6600.000000	78.027	151.2578
6700.000000	77.677	154.9579
6800.000000	77.442	158.6143
6900.000000	77.316	162.1516
7000.000000	77.299	165.5153
7100.000000	77.382	168.7262
7200.000000	77.581	171.7425
7300.000000	77.894	174.4485
7400.000000	78.314	176.7004
7500.000000	78.860	178.3741
7620.000000	79.698	179.2292
7750.000000	80.809	177.9457
7880.000000	82.024	173.0039
8000.000000	82.995	163.7963
8120.000000	83.428	149.9816
8250.000000	82.927	132.8549
8380.000000	81.427	118.5979
8500.000000	79.498	110.3716
8620.000000	77.419	106.3717
8750.000000	75.260	105.3071
8850.000000	73.735	106.0279
9000.000000	71.677	108.7153
9120.000000	70.215	111.6575
9250.000000	68.791	115.4724
9380.000000	67.517	119.6208
9500.000000	66.458	123.5771
9620.000000	65.491	127.7869
9750.000000	64.535	132.6115
9880.000000	63.665	137.5634
10000.000000	62.925	142.2077
10150.000000	62.098	147.9357
10300.000000	61.329	153.7139
10440.000000	60.646	159.2190
10600.000000	59.973	165.3870
10750.000000	59.439	171.1953
10900.000000	58.939	177.2107
11060.000000	58.470	-176.2017
11200.000000	58.122	-170.4621
11380.000000	57.726	-163.3096
11500.000000	57.508	-158.6194
11720.000000	57.178	-150.0555
11800.000000	57.072	-146.8725
12060.000000	56.933	-136.3407
12200.000000	56.946	-130.5740
12410.000000	57.093	-122.3128
12500.000000	57.241	-118.7915
12650.000000	57.648	-112.6414
12800.000000	58.179	-106.8270
13150.000000	59.539	-96.4629
13200.000000	59.739	-95.1239
13400.000000	60.578	-89.7319
13600.000000	61.627	-84.5809
13800.000000	63.060	-80.1110
14000.000000	64.851	-76.3820
14300.000000	68.247	-73.5095
14500.000000	70.991	-75.7125
14750.000000	74.287	-88.0468
15000.000000	76.082	-113.4055
15250.000000	75.665	-140.4591
15500.000000	73.844	-156.1550
15750.000000	71.987	-161.7795
16000.000000	70.793	-162.9492
16250.000000	70.367	-163.3773
16500.000000	70.559	-165.8787
16750.000000	70.945	-172.6037
17000.000000	70.903	175.9626
17250.000000	69.938	164.1697
17500.000000	68.215	157.1481
17750.000000	66.501	153.8563
18000.000000	65.147	149.8075
18250.000000	63.687	144.4106
18500.000000	61.923	141.1182
18750.000000	60.226	141.8046
19000.000000	58.999	144.5519
19250.000000	58.402	146.0635
19500.000000	58.271	144.4599
19750.000000	58.140	140.5376
