* Measurement data measured by REW V5.20.7
* Source: 마이크(Realtek High Definition Audi, MICROPHONE (마스), L, volume: no control
* Format: 128k Log Swept Sine, 1 sweep at -12.0 dBFS with no timing reference
* Dated: May 8, 2023 4:53:21 PM
* REW Settings:
*  C-weighting compensation: Off
*  Target level: 75.0 dB
* Note: ; 
* Measurement: KZ D-Fi R (0100)
* Smoothing: 1/24 octave
* Frequency Step: 1/48 octave
* Start Frequency: 20.300 Hz
*
* Freq(Hz)	SPL(dB)	Phase(degrees)
20.299999	79.890	-156.5227
20.600000	79.892	-156.8408
20.900000	79.893	-157.4194
21.200001	79.889	-158.0014
21.400000	79.880	-158.3984
21.799999	79.849	-159.2305
22.000000	79.824	-159.6581
22.400000	79.757	-160.4824
22.700001	79.697	-161.0352
23.000000	79.636	-161.5179
23.299999	79.582	-161.9457
23.600000	79.540	-162.3470
24.000000	79.504	-162.8928
24.299999	79.490	-163.3407
24.700001	79.481	-163.9989
25.000000	79.477	-164.5241
25.400000	79.472	-165.2339
25.799999	79.468	-165.9184
26.200001	79.466	-166.5543
26.500000	79.467	-166.9964
26.900000	79.473	-167.5477
27.200001	79.479	-167.9452
27.600000	79.491	-168.4741
28.000000	79.501	-169.0181
28.500000	79.504	-169.7123
29.000000	79.490	-170.3684
29.500000	79.462	-170.9286
30.000000	79.432	-171.3893
30.400000	79.412	-171.7242
30.700001	79.399	-171.9791
31.100000	79.382	-172.3415
31.500000	79.363	-172.7306
32.000000	79.333	-173.2392
32.500000	79.300	-173.7577
33.000000	79.265	-174.2828
33.500000	79.232	-174.8115
34.000000	79.201	-175.3292
34.500000	79.173	-175.8204
35.000000	79.150	-176.2836
35.500000	79.133	-176.7300
36.000000	79.119	-177.1707
36.500000	79.107	-177.6066
37.000000	79.093	-178.0295
37.500000	79.077	-178.4290
38.200001	79.049	-178.9415
38.700001	79.027	-179.2802
39.500000	78.985	-179.7966
40.000000	78.957	179.8903
40.599998	78.921	179.5212
41.200001	78.884	179.1534
41.799999	78.848	178.7807
42.500000	78.806	178.3359
43.099998	78.772	177.9474
43.700001	78.739	177.5610
44.400002	78.701	177.1290
45.000000	78.672	176.7759
45.500000	78.649	176.4870
46.200001	78.616	176.0959
46.799999	78.586	175.7899
47.500000	78.553	175.4646
48.200001	78.522	175.1413
48.700001	78.498	174.9062
49.400002	78.462	174.5885
50.000000	78.430	174.3308
50.799999	78.389	173.9883
51.500000	78.354	173.6847
52.200001	78.320	173.3830
53.000000	78.284	173.0374
53.799999	78.247	172.7043
54.500000	78.214	172.4366
55.200001	78.182	172.1823
56.000000	78.144	171.9028
57.000000	78.094	171.5750
58.000000	78.041	171.2458
59.000000	77.982	170.9401
60.000000	77.929	170.6521
60.799999	77.890	170.3986
61.500000	77.854	170.1743
62.200001	77.820	169.9633
63.000000	77.782	169.7363
64.000000	77.735	169.4786
65.000000	77.690	169.2648
66.000000	77.647	169.0743
67.000000	77.604	168.8945
68.000000	77.563	168.7099
69.000000	77.521	168.4927
70.000000	77.476	168.2653
71.000000	77.431	168.0420
72.000000	77.388	167.8229
73.000000	77.347	167.6194
74.000000	77.307	167.4182
75.000000	77.265	167.2335
76.199997	77.216	167.0446
77.500000	77.162	166.8375
78.800003	77.106	166.6357
80.000000	77.053	166.4515
81.199997	76.999	166.2655
82.500000	76.939	166.0709
83.800003	76.880	165.8936
85.000000	76.825	165.7384
86.199997	76.770	165.5989
87.500000	76.710	165.4792
88.500000	76.666	165.4036
90.000000	76.599	165.3092
91.199997	76.547	165.2463
92.500000	76.491	165.1809
93.800003	76.435	165.1159
95.000000	76.383	165.0526
96.199997	76.329	164.9915
97.500000	76.268	164.9379
98.800003	76.204	164.9182
100.000000	76.140	164.9455
101.500000	76.056	165.0767
103.000000	75.971	165.3613
104.400002	75.903	165.8165
106.000000	75.870	166.5403
107.500000	75.908	167.1809
109.000000	75.996	167.4497
110.599998	76.085	167.2183
112.000000	76.122	166.7619
113.800003	76.116	166.1550
115.000000	76.092	165.8152
117.199997	76.028	165.3332
118.000000	76.002	165.1972
120.599998	75.915	164.8587
122.000000	75.869	164.7190
124.099998	75.800	164.5537
125.000000	75.771	164.4955
126.500000	75.724	164.4097
128.000000	75.678	164.3370
131.500000	75.575	164.2319
132.000000	75.561	164.2225
134.000000	75.504	164.1942
136.000000	75.448	164.1823
138.000000	75.394	164.1920
140.000000	75.343	164.2126
143.000000	75.269	164.2405
145.000000	75.222	164.2477
147.500000	75.165	164.2481
150.000000	75.108	164.2578
152.500000	75.051	164.2767
155.000000	74.993	164.3026
157.500000	74.935	164.3443
160.000000	74.878	164.4008
162.500000	74.822	164.4601
165.000000	74.767	164.5190
167.500000	74.713	164.5850
170.000000	74.661	164.6633
172.500000	74.613	164.7435
175.000000	74.566	164.8187
177.500000	74.520	164.8993
180.000000	74.475	164.9888
182.500000	74.430	165.0847
185.000000	74.385	165.1846
187.500000	74.340	165.2943
190.000000	74.295	165.4138
192.500000	74.250	165.5424
195.000000	74.206	165.6811
197.500000	74.164	165.8277
200.000000	74.125	165.9854
203.000000	74.082	166.1818
206.000000	74.044	166.3584
209.000000	74.008	166.5013
212.000000	73.970	166.6142
214.000000	73.942	166.6832
218.000000	73.881	166.8343
220.000000	73.850	166.9189
224.000000	73.788	167.1041
227.000000	73.741	167.2557
230.000000	73.695	167.4111
233.000000	73.650	167.5599
236.000000	73.608	167.7114
240.000000	73.552	167.9280
243.000000	73.513	168.0913
247.000000	73.463	168.3169
250.000000	73.426	168.4965
254.000000	73.378	168.7318
258.000000	73.332	168.9651
262.000000	73.288	169.2050
265.000000	73.254	169.3874
269.000000	73.209	169.6309
272.000000	73.177	169.8164
276.000000	73.137	170.0662
280.000000	73.098	170.3050
285.000000	73.050	170.6120
290.000000	73.003	170.9282
295.000000	72.958	171.2394
300.000000	72.915	171.5640
304.000000	72.881	171.8244
307.000000	72.857	172.0146
311.000000	72.824	172.2678
315.000000	72.792	172.5268
320.000000	72.753	172.8578
325.000000	72.714	173.1768
330.000000	72.677	173.4885
335.000000	72.642	173.8138
340.000000	72.607	174.1374
345.000000	72.572	174.4589
350.000000	72.537	174.7813
355.000000	72.503	175.1110
360.000000	72.470	175.4425
365.000000	72.439	175.7755
370.000000	72.409	176.1107
375.000000	72.379	176.4432
382.000000	72.338	176.8999
387.000000	72.310	177.2261
395.000000	72.268	177.7593
400.000000	72.243	178.0922
406.000000	72.213	178.4832
412.000000	72.186	178.8739
418.000000	72.159	179.2734
425.000000	72.129	179.7340
431.000000	72.106	-179.8796
437.000000	72.083	-179.4886
444.000000	72.056	-179.0368
450.000000	72.035	-178.6491
455.000000	72.018	-178.3226
462.000000	71.996	-177.8603
468.000000	71.977	-177.4659
475.000000	71.956	-177.0012
482.000000	71.937	-176.5366
487.000000	71.925	-176.2136
494.000000	71.908	-175.7678
500.000000	71.894	-175.3796
508.000000	71.876	-174.8512
515.000000	71.861	-174.3885
522.000000	71.849	-173.9323
530.000000	71.837	-173.4070
538.000000	71.823	-172.8808
545.000000	71.811	-172.4310
552.000000	71.798	-171.9772
560.000000	71.783	-171.4481
570.000000	71.769	-170.7930
580.000000	71.757	-170.1450
590.000000	71.746	-169.4902
600.000000	71.737	-168.8312
608.000000	71.730	-168.3112
615.000000	71.726	-167.8609
622.000000	71.723	-167.4099
630.000000	71.722	-166.8908
640.000000	71.724	-166.2383
650.000000	71.729	-165.6006
660.000000	71.736	-164.9907
670.000000	71.743	-164.4104
680.000000	71.751	-163.8433
690.000000	71.756	-163.3363
700.000000	71.742	-162.8237
710.000000	71.726	-162.1884
720.000000	71.723	-161.5180
730.000000	71.716	-160.8832
740.000000	71.699	-160.1563
750.000000	71.697	-159.2815
762.000000	71.725	-158.2357
775.000000	71.768	-157.2332
788.000000	71.810	-156.3110
800.000000	71.847	-155.4781
812.000000	71.884	-154.6604
825.000000	71.925	-153.7812
838.000000	71.968	-152.9112
850.000000	72.012	-152.1294
862.000000	72.058	-151.3673
875.000000	72.112	-150.5566
885.000000	72.156	-149.9384
900.000000	72.225	-149.0167
912.000000	72.282	-148.3025
925.000000	72.348	-147.5474
938.000000	72.419	-146.8065
950.000000	72.487	-146.1433
962.000000	72.557	-145.5079
975.000000	72.636	-144.8473
988.000000	72.718	-144.2047
1000.000000	72.796	-143.6336
1015.000000	72.894	-142.9566
1030.000000	72.993	-142.3228
1044.000000	73.087	-141.7686
1060.000000	73.194	-141.1736
1075.000000	73.288	-140.6514
1090.000000	73.377	-140.1647
1106.000000	73.474	-139.6865
1120.000000	73.560	-139.2962
1138.000000	73.667	-138.8330
1150.000000	73.738	-138.5499
1172.000000	73.865	-138.0777
1180.000000	73.911	-137.9224
1206.000000	74.063	-137.4577
1220.000000	74.151	-137.2265
1241.000000	74.289	-136.8990
1250.000000	74.348	-136.7684
1265.000000	74.444	-136.5646
1280.000000	74.538	-136.3727
1315.000000	74.748	-135.9506
1320.000000	74.777	-135.8941
1340.000000	74.893	-135.6742
1360.000000	75.010	-135.4583
1380.000000	75.130	-135.2454
1400.000000	75.251	-135.0429
1430.000000	75.430	-134.7417
1450.000000	75.548	-134.5420
1475.000000	75.692	-134.2963
1500.000000	75.833	-134.0600
1525.000000	75.969	-133.8260
1550.000000	76.094	-133.5961
1575.000000	76.213	-133.3725
1600.000000	76.331	-133.1534
1625.000000	76.448	-132.9431
1650.000000	76.563	-132.7388
1675.000000	76.677	-132.5382
1700.000000	76.790	-132.3424
1725.000000	76.902	-132.1456
1750.000000	77.012	-131.9395
1775.000000	77.120	-131.7136
1800.000000	77.223	-131.4416
1825.000000	77.322	-131.0846
1850.000000	77.423	-130.5966
1875.000000	77.537	-129.9321
1900.000000	77.686	-129.0950
1925.000000	77.893	-128.2065
1950.000000	78.161	-127.5070
1975.000000	78.467	-127.2341
2000.000000	78.765	-127.4500
2030.000000	79.071	-128.1608
2060.000000	79.314	-129.0466
2090.000000	79.515	-129.9098
2120.000000	79.691	-130.6979
2140.000000	79.802	-131.1864
2180.000000	80.014	-132.1080
2200.000000	80.117	-132.5553
2240.000000	80.317	-133.4498
2270.000000	80.464	-134.1315
2300.000000	80.609	-134.8298
2330.000000	80.751	-135.5564
2360.000000	80.888	-136.3142
2400.000000	81.064	-137.3709
2430.000000	81.189	-138.1974
2470.000000	81.349	-139.3462
2500.000000	81.463	-140.2407
2540.000000	81.604	-141.4825
2580.000000	81.735	-142.7776
2620.000000	81.852	-144.1193
2650.000000	81.929	-145.1531
2690.000000	82.020	-146.5517
2720.000000	82.077	-147.6063
2760.000000	82.140	-149.0153
2800.000000	82.189	-150.4257
2850.000000	82.229	-152.1784
2900.000000	82.245	-153.9037
2950.000000	82.238	-155.5817
3000.000000	82.206	-157.1974
3040.000000	82.163	-158.4318
3070.000000	82.119	-159.3085
3110.000000	82.046	-160.3789
3150.000000	81.956	-161.2886
3200.000000	81.833	-162.1223
3250.000000	81.721	-162.5448
3300.000000	81.663	-162.6512
3350.000000	81.678	-162.7852
3400.000000	81.734	-163.2700
3450.000000	81.782	-164.1346
3500.000000	81.798	-165.2128
3550.000000	81.780	-166.3276
3600.000000	81.741	-167.3911
3650.000000	81.687	-168.3851
3700.000000	81.624	-169.3034
3750.000000	81.554	-170.1532
3820.000000	81.453	-171.2573
3870.000000	81.381	-171.9953
3950.000000	81.270	-173.1119
4000.000000	81.198	-173.7767
4060.000000	81.110	-174.5419
4120.000000	81.020	-175.2829
4180.000000	80.927	-176.0067
4250.000000	80.812	-176.8234
4310.000000	80.709	-177.5000
4370.000000	80.600	-178.1575
4440.000000	80.469	-178.9007
4500.000000	80.350	-179.5208
4550.000000	80.246	179.9745
4620.000000	80.092	179.2947
4680.000000	79.951	178.7477
4750.000000	79.777	178.1606
4820.000000	79.591	177.6399
4870.000000	79.448	177.3155
4940.000000	79.237	176.9306
5000.000000	79.048	176.6700
5080.000000	78.789	176.4267
5150.000000	78.557	176.3191
5220.000000	78.322	176.3151
5300.000000	78.051	176.4297
5380.000000	77.777	176.6728
5450.000000	77.531	177.0063
5520.000000	77.281	177.4650
5600.000000	76.996	178.1505
5700.000000	76.654	179.2478
5800.000000	76.337	-179.4287
5900.000000	76.049	-177.9193
6000.000000	75.791	-176.2650
6080.000000	75.607	-174.8571
6150.000000	75.462	-173.5661
6220.000000	75.333	-172.2168
6300.000000	75.206	-170.6102
6400.000000	75.079	-168.5289
6500.000000	74.990	-166.3865
6600.000000	74.943	-164.1973
6700.000000	74.938	-161.9872
6800.000000	74.979	-159.7857
6900.000000	75.074	-157.6146
7000.000000	75.227	-155.4846
7100.000000	75.438	-153.4217
7200.000000	75.716	-151.4772
7300.000000	76.069	-149.7333
7400.000000	76.504	-148.3090
7500.000000	77.025	-147.3566
7620.000000	77.760	-147.1211
7750.000000	78.651	-148.5430
7880.000000	79.546	-152.4492
8000.000000	80.219	-158.7089
8120.000000	80.558	-167.1705
8250.000000	80.417	-177.2383
8380.000000	79.788	173.8577
8500.000000	78.933	167.7101
8620.000000	77.974	163.4603
8750.000000	76.916	160.3510
8850.000000	76.093	158.6866
9000.000000	74.798	157.7428
9120.000000	73.816	158.7586
9250.000000	72.976	160.4585
9380.000000	72.276	161.9255
9500.000000	71.669	163.1644
9620.000000	71.068	164.4691
9750.000000	70.421	166.2444
9880.000000	69.821	168.4373
10000.000000	69.324	170.6829
10150.000000	68.763	173.6488
10300.000000	68.261	176.8151
10440.000000	67.851	179.9418
10600.000000	67.456	-176.3418
10750.000000	67.158	-172.7779
10900.000000	66.933	-169.1910
11060.000000	66.774	-165.4130
11200.000000	66.702	-162.1946
11380.000000	66.697	-158.2263
11500.000000	66.750	-155.7231
11720.000000	66.970	-151.5737
11800.000000	67.090	-150.2551
12060.000000	67.614	-146.8410
12200.000000	67.983	-145.6534
12410.000000	68.640	-144.9147
12500.000000	68.943	-145.0359
12650.000000	69.451	-145.8677
12800.000000	69.931	-147.4273
13150.000000	70.943	-153.0227
13200.000000	71.087	-154.0804
13400.000000	71.619	-159.4386
13600.000000	71.946	-166.5386
13800.000000	71.984	-174.1852
14000.000000	71.763	178.9271
14300.000000	71.167	171.2831
14500.000000	70.783	167.8886
14750.000000	70.474	164.5832
15000.000000	70.404	161.1761
15250.000000	70.546	156.5130
15500.000000	70.777	149.3811
15750.000000	70.831	138.8347
16000.000000	70.332	125.5845
16250.000000	68.966	113.7178
16500.000000	66.935	109.3422
16750.000000	65.504	110.8033
17000.000000	64.956	109.3630
17250.000000	64.239	106.1168
17500.000000	63.346	104.7605
17750.000000	62.739	104.8652
18000.000000	62.684	104.4125
18250.000000	63.143	101.0363
18500.000000	63.826	93.2679
18750.000000	64.397	81.1656
19000.000000	64.662	65.4702
19250.000000	64.530	47.3715
19500.000000	63.947	28.7440
19750.000000	62.915	13.1238
20000.000000	61.959	5.2474
