* Measurement data measured by REW V5.20.7
* Source: Mic in at rear panel (Pink)(Realtek(R) Audio), MICROPHONE (마스), L, volume: 1.000
* Format: 128k Log Swept Sine, 1 sweep at -12.0 dBFS with no timing reference
* Dated: 2022. 5. 9 오후 1:26:20
* REW Settings:
*  C-weighting compensation: Off
*  Target level: 75.0 dB
* Note: 
* Measurement: R
* Smoothing: 1/24 octave
* Frequency Step: 1/48 octave
* Start Frequency: 20.300 Hz
*
* Freq(Hz)	SPL(dB)	Phase(degrees)
20.299999	86.001	169.1844
20.600000	85.977	168.9514
20.900000	85.925	168.5522
21.200001	85.871	168.2157
21.400000	85.836	168.0190
21.799999	85.764	167.6421
22.000000	85.728	167.4425
22.400000	85.657	167.0070
22.700001	85.609	166.6508
23.000000	85.565	166.2798
23.299999	85.522	165.9102
23.600000	85.481	165.5504
24.000000	85.430	165.0833
24.299999	85.400	164.7276
24.700001	85.367	164.2244
25.000000	85.342	163.8239
25.400000	85.304	163.2843
25.799999	85.263	162.7898
26.200001	85.226	162.3745
26.500000	85.202	162.1047
26.900000	85.178	161.7552
27.200001	85.161	161.4642
27.600000	85.133	161.0146
28.000000	85.087	160.5248
28.500000	85.000	159.9700
29.000000	84.900	159.5876
29.500000	84.813	159.3533
30.000000	84.747	159.1254
30.400000	84.701	158.8686
30.700001	84.667	158.6288
31.100000	84.621	158.2839
31.500000	84.570	157.9575
32.000000	84.507	157.6143
32.500000	84.455	157.3167
33.000000	84.415	157.0054
33.500000	84.377	156.6565
34.000000	84.337	156.2826
34.500000	84.293	155.9034
35.000000	84.245	155.5394
35.500000	84.197	155.2204
36.000000	84.152	154.9541
36.500000	84.112	154.7022
37.000000	84.071	154.4299
37.500000	84.022	154.1756
38.200001	83.960	153.9468
38.700001	83.939	153.7829
39.500000	83.878	153.3038
40.000000	83.786	153.1896
40.599998	83.684	153.6628
41.200001	83.705	154.3568
41.799999	83.822	154.2164
42.500000	83.854	152.7295
43.099998	83.698	151.5204
43.700001	83.488	151.2446
44.400002	83.342	151.5807
45.000000	83.291	151.6232
45.500000	83.242	151.4324
46.200001	83.149	151.1644
46.799999	83.080	150.9989
47.500000	83.019	150.7121
48.200001	82.961	150.3387
48.700001	82.914	150.0865
49.400002	82.838	149.8071
50.000000	82.769	149.6588
50.799999	82.688	149.5271
51.500000	82.621	149.3567
52.200001	82.542	149.1909
53.000000	82.458	149.1783
53.799999	82.411	149.2311
54.500000	82.390	149.1108
55.200001	82.356	148.8287
56.000000	82.291	148.4899
57.000000	82.192	148.2633
58.000000	82.105	148.2084
59.000000	82.033	148.0998
60.000000	81.953	147.8852
60.799999	81.876	147.7570
61.500000	81.808	147.7566
62.200001	81.752	147.8307
63.000000	81.707	147.8677
64.000000	81.659	147.7336
65.000000	81.606	147.5128
66.000000	81.551	147.2949
67.000000	81.490	147.1027
68.000000	81.420	146.9839
69.000000	81.342	146.9652
70.000000	81.266	146.9429
71.000000	81.187	146.8669
72.000000	81.101	146.7966
73.000000	81.015	146.7891
74.000000	80.948	146.8313
75.000000	80.900	146.8008
76.199997	80.845	146.7185
77.500000	80.781	146.5434
78.800003	80.676	146.4036
80.000000	80.581	146.5101
81.199997	80.513	146.5366
82.500000	80.436	146.3889
83.800003	80.364	146.3385
85.000000	80.327	146.3933
86.199997	80.299	146.3556
87.500000	80.242	146.2779
88.500000	80.189	146.2707
90.000000	80.108	146.2466
91.199997	80.039	146.1699
92.500000	79.960	146.1360
93.800003	79.899	146.2015
95.000000	79.857	146.2960
96.199997	79.822	146.3994
97.500000	79.780	146.4362
98.800003	79.716	146.3909
100.000000	79.639	146.3141
101.500000	79.532	146.2428
103.000000	79.446	146.2591
104.400002	79.392	146.2971
106.000000	79.346	146.3474
107.500000	79.306	146.3925
109.000000	79.256	146.3789
110.599998	79.186	146.3782
112.000000	79.120	146.4365
113.800003	79.042	146.6231
115.000000	78.998	146.7461
117.199997	78.898	146.6414
118.000000	78.837	146.5176
120.599998	78.641	146.7354
122.000000	78.641	146.9108
124.099998	78.668	146.8093
125.000000	78.666	146.8079
126.500000	78.643	146.9209
128.000000	78.598	147.0705
131.500000	78.438	147.4185
132.000000	78.422	147.4718
134.000000	78.393	147.5939
136.000000	78.369	147.6060
138.000000	78.315	147.6756
140.000000	78.227	147.7608
143.000000	78.074	147.9549
145.000000	78.009	148.0896
147.500000	77.970	148.2433
150.000000	77.939	148.3172
152.500000	77.871	148.4045
155.000000	77.801	148.6954
157.500000	77.764	148.9971
160.000000	77.701	149.2187
162.500000	77.624	149.4308
165.000000	77.575	149.4193
167.500000	77.532	149.4518
170.000000	77.455	150.0431
172.500000	77.364	151.1042
175.000000	77.348	151.8419
177.500000	77.368	151.7872
180.000000	77.369	151.7879
182.500000	77.382	152.0143
185.000000	77.369	152.0146
187.500000	77.310	151.8988
190.000000	77.246	151.7887
192.500000	77.190	151.7410
195.000000	77.173	151.8675
197.500000	77.204	151.8830
200.000000	77.216	151.7093
203.000000	77.188	151.5666
206.000000	77.110	151.5909
209.000000	76.966	151.8417
212.000000	76.855	152.2212
214.000000	76.861	152.2761
218.000000	76.923	152.0874
220.000000	76.914	152.0909
224.000000	76.868	151.9486
227.000000	76.842	151.6248
230.000000	76.784	151.8249
233.000000	76.722	152.3668
236.000000	76.678	152.7286
240.000000	76.631	152.9542
243.000000	76.590	153.0930
247.000000	76.550	153.2499
250.000000	76.514	153.3223
254.000000	76.434	153.4527
258.000000	76.375	153.8141
262.000000	76.348	154.1237
265.000000	76.335	154.2299
269.000000	76.304	154.3432
272.000000	76.260	154.4710
276.000000	76.198	154.6849
280.000000	76.141	154.9319
285.000000	76.066	155.2553
290.000000	76.010	155.4181
295.000000	75.974	155.7018
300.000000	75.933	156.1064
304.000000	75.910	156.4081
307.000000	75.892	156.6238
311.000000	75.857	156.9473
315.000000	75.829	157.2734
320.000000	75.824	157.4811
325.000000	75.838	157.6761
330.000000	75.835	157.9968
335.000000	75.824	158.1353
340.000000	75.791	158.2128
345.000000	75.757	158.2336
350.000000	75.734	158.3522
355.000000	75.704	158.5634
360.000000	75.652	158.7945
365.000000	75.598	158.8914
370.000000	75.553	158.9859
375.000000	75.512	159.1175
382.000000	75.445	159.1939
387.000000	75.410	159.3300
395.000000	75.361	159.8636
400.000000	75.333	160.2813
406.000000	75.316	160.6194
412.000000	75.298	160.6848
418.000000	75.246	160.8456
425.000000	75.182	161.1920
431.000000	75.151	161.5639
437.000000	75.141	161.8254
444.000000	75.127	162.0230
450.000000	75.113	162.3115
455.000000	75.097	162.5853
462.000000	75.067	162.9528
468.000000	75.048	163.2954
475.000000	75.031	163.7689
482.000000	75.014	164.2136
487.000000	75.000	164.4494
494.000000	74.969	164.6678
500.000000	74.940	164.8487
508.000000	74.926	165.2363
515.000000	74.906	165.6154
522.000000	74.872	165.9708
530.000000	74.846	166.4241
538.000000	74.828	166.8498
545.000000	74.826	167.1972
552.000000	74.824	167.5092
560.000000	74.801	167.8736
570.000000	74.776	168.5127
580.000000	74.773	169.0949
590.000000	74.748	169.5491
600.000000	74.714	169.9602
608.000000	74.700	170.3713
615.000000	74.698	170.7543
622.000000	74.704	171.1299
630.000000	74.713	171.5309
640.000000	74.705	172.1014
650.000000	74.686	172.7871
660.000000	74.701	173.3251
670.000000	74.715	173.8239
680.000000	74.709	174.4016
690.000000	74.714	174.9099
700.000000	74.724	175.3819
710.000000	74.736	175.9574
720.000000	74.750	176.4602
730.000000	74.767	176.9757
740.000000	74.801	177.6287
750.000000	74.829	178.3019
762.000000	74.853	179.0174
775.000000	74.890	179.7238
788.000000	74.920	-179.6266
800.000000	74.963	-179.1016
812.000000	75.004	-178.4347
825.000000	75.043	-177.5934
838.000000	75.113	-176.9271
850.000000	75.170	-176.3833
862.000000	75.206	-175.7503
875.000000	75.274	-175.0398
885.000000	75.341	-174.4748
900.000000	75.427	-173.6751
912.000000	75.503	-173.1360
925.000000	75.591	-172.5798
938.000000	75.675	-172.0372
950.000000	75.746	-171.5242
962.000000	75.822	-171.0356
975.000000	75.907	-170.4796
988.000000	75.972	-169.8627
1000.000000	76.043	-169.3515
1015.000000	76.192	-169.0025
1030.000000	76.337	-168.7274
1044.000000	76.452	-168.4053
1060.000000	76.568	-168.0537
1075.000000	76.683	-167.6902
1090.000000	76.808	-167.3609
1106.000000	76.928	-167.1431
1120.000000	77.031	-166.9964
1138.000000	77.179	-166.7939
1150.000000	77.277	-166.6292
1172.000000	77.434	-166.2786
1180.000000	77.488	-166.1706
1206.000000	77.647	-165.9134
1220.000000	77.714	-165.8610
1241.000000	77.808	-165.7592
1250.000000	77.851	-165.6964
1265.000000	77.937	-165.5712
1280.000000	78.054	-165.4493
1315.000000	78.407	-165.2870
1320.000000	78.461	-165.2700
1340.000000	78.663	-165.1886
1360.000000	78.850	-165.0844
1380.000000	79.012	-164.9860
1400.000000	79.146	-164.9024
1430.000000	79.330	-164.7359
1450.000000	79.451	-164.5945
1475.000000	79.607	-164.4817
1500.000000	79.779	-164.4205
1525.000000	79.948	-164.2900
1550.000000	80.113	-164.1862
1575.000000	80.283	-164.0795
1600.000000	80.455	-163.9398
1625.000000	80.631	-163.8345
1650.000000	80.807	-163.7516
1675.000000	80.986	-163.7006
1700.000000	81.176	-163.7034
1725.000000	81.372	-163.7062
1750.000000	81.569	-163.7018
1775.000000	81.771	-163.7462
1800.000000	81.971	-163.8500
1825.000000	82.178	-163.9676
1850.000000	82.389	-164.1373
1875.000000	82.598	-164.3311
1900.000000	82.809	-164.5689
1925.000000	83.022	-164.8977
1950.000000	83.233	-165.3059
1975.000000	83.442	-165.7548
2000.000000	83.654	-166.2151
2030.000000	83.908	-166.8106
2060.000000	84.159	-167.5013
2090.000000	84.406	-168.2983
2120.000000	84.647	-169.1677
2140.000000	84.806	-169.7921
2180.000000	85.114	-171.1632
2200.000000	85.264	-171.9121
2240.000000	85.548	-173.5276
2270.000000	85.742	-174.8314
2300.000000	85.925	-176.1930
2330.000000	86.096	-177.6021
2360.000000	86.252	-179.0605
2400.000000	86.444	178.9009
2430.000000	86.569	177.3298
2470.000000	86.703	175.2091
2500.000000	86.780	173.5993
2540.000000	86.858	171.4648
2580.000000	86.904	169.3847
2620.000000	86.917	167.3861
2650.000000	86.912	165.9391
2690.000000	86.889	164.0926
2720.000000	86.860	162.7807
2760.000000	86.806	161.1522
2800.000000	86.738	159.6630
2850.000000	86.635	157.9595
2900.000000	86.518	156.4702
2950.000000	86.395	155.1541
3000.000000	86.270	154.0119
3040.000000	86.166	153.2376
3070.000000	86.090	152.7244
3110.000000	85.993	152.1213
3150.000000	85.897	151.6172
3200.000000	85.782	151.1129
3250.000000	85.682	150.7582
3300.000000	85.597	150.5213
3350.000000	85.531	150.3379
3400.000000	85.484	150.1549
3450.000000	85.453	149.9627
3500.000000	85.432	149.7726
3550.000000	85.419	149.5809
3600.000000	85.414	149.3399
3650.000000	85.419	149.0546
3700.000000	85.424	148.7602
3750.000000	85.430	148.4443
3820.000000	85.440	147.8903
3870.000000	85.454	147.4134
3950.000000	85.499	146.5487
4000.000000	85.529	145.9383
4060.000000	85.553	145.1230
4120.000000	85.559	144.2243
4180.000000	85.546	143.2369
4250.000000	85.506	142.0040
4310.000000	85.455	140.8926
4370.000000	85.399	139.7321
4440.000000	85.339	138.3100
4500.000000	85.293	136.9773
4550.000000	85.253	135.7862
4620.000000	85.181	133.9976
4680.000000	85.086	132.3802
4750.000000	84.930	130.4422
4820.000000	84.721	128.5355
4870.000000	84.542	127.2385
4940.000000	84.255	125.5570
5000.000000	83.972	124.2528
5080.000000	83.535	122.7654
5150.000000	83.102	121.7958
5220.000000	82.635	121.2627
5300.000000	82.082	121.3002
5380.000000	81.539	122.0757
5450.000000	81.108	123.2415
5520.000000	80.737	124.6518
5600.000000	80.388	126.3922
5700.000000	80.020	128.5597
5800.000000	79.700	130.6869
5900.000000	79.413	132.8733
6000.000000	79.156	135.1914
6080.000000	78.983	137.1248
6150.000000	78.862	138.8571
6220.000000	78.769	140.6665
6300.000000	78.686	142.8259
6400.000000	78.613	145.6167
6500.000000	78.586	148.4981
6600.000000	78.611	151.4818
6700.000000	78.697	154.4508
6800.000000	78.844	157.3811
6900.000000	79.058	160.2510
7000.000000	79.337	163.0262
7100.000000	79.677	165.5655
7200.000000	80.088	167.7424
7300.000000	80.577	169.5394
7400.000000	81.135	170.8549
7500.000000	81.731	171.4929
7620.000000	82.456	171.1791
7750.000000	83.180	169.2812
7880.000000	83.710	165.6025
8000.000000	83.937	160.7753
8120.000000	83.858	155.1235
8250.000000	83.421	149.1173
8380.000000	82.680	144.2452
8500.000000	81.831	141.3058
8620.000000	80.915	139.9136
8750.000000	79.905	139.9266
8850.000000	79.160	140.8451
9000.000000	78.160	143.4167
9120.000000	77.473	146.2040
9250.000000	76.834	149.7027
9380.000000	76.295	153.5922
9500.000000	75.881	157.4366
9620.000000	75.546	161.3864
9750.000000	75.268	165.6618
9880.000000	75.077	169.8309
10000.000000	74.978	173.5255
10150.000000	74.957	177.9759
10300.000000	75.054	-177.8240
10440.000000	75.250	-174.3384
10600.000000	75.572	-171.0396
10750.000000	75.952	-168.7507
10900.000000	76.403	-167.5634
11060.000000	76.915	-167.7548
11200.000000	77.315	-169.3023
11380.000000	77.640	-173.2572
11500.000000	77.663	-176.7780
11720.000000	77.194	176.5163
11800.000000	76.865	174.4560
12060.000000	75.390	170.6822
12200.000000	74.466	170.7159
12410.000000	73.113	173.1883
12500.000000	72.574	174.9794
12650.000000	71.738	178.7479
12800.000000	70.997	-176.7910
13150.000000	69.702	-164.3710
13200.000000	69.554	-162.4278
13400.000000	69.035	-154.4019
13600.000000	68.635	-146.2618
13800.000000	68.368	-138.1792
14000.000000	68.284	-130.2249
14300.000000	68.517	-119.1160
14500.000000	68.893	-112.4836
14750.000000	69.552	-105.3239
15000.000000	70.347	-99.9619
15250.000000	71.196	-97.0699
15500.000000	71.929	-97.1859
15750.000000	72.419	-100.0964
16000.000000	72.637	-104.6969
16250.000000	72.600	-109.2908
16500.000000	72.388	-112.8833
16750.000000	72.203	-115.9200
17000.000000	72.148	-119.8081
17250.000000	72.085	-126.2605
17500.000000	71.640	-135.6785
17750.000000	70.466	-145.5585
18000.000000	68.514	-151.9846
18250.000000	66.044	-152.9677
18500.000000	63.431	-149.0961
18750.000000	60.964	-141.8420
19000.000000	58.782	-132.1241
19250.000000	56.906	-120.9615
19500.000000	55.323	-108.4900
19750.000000	53.973	-94.8857
20000.000000	53.098	-85.7590
