* Measurement data measured by REW V5.20.9
* Source: Input device not selected, no input selected, L, volume: no control
* Format: 128k Log Swept Sine, 1 sweep at -12.0 dBFS with no timing reference
* Dated: 2022. 7. 18 ¿ÀÀü 11:15:06
* REW Settings:
*  C-weighting compensation: Off
*  Target level: 75.0 dB
* Note: 
* Measurement: L
* Smoothing: 1/24 octave
* Frequency Step: 1/48 octave
* Start Frequency: 20.300 Hz
*
* Freq(Hz)	SPL(dB)	Phase(degrees)
20.299999	77.415	52.4325
20.600000	77.512	52.7797
20.900000	77.713	53.1488
21.200001	77.901	52.8103
21.400000	77.990	52.1981
21.799999	78.048	50.4654
22.000000	78.011	49.6144
22.400000	77.832	48.5325
22.700001	77.683	48.5366
23.000000	77.622	49.1495
23.299999	77.703	49.8586
23.600000	77.909	50.1474
24.000000	78.274	49.3268
24.299999	78.515	47.8351
24.700001	78.715	45.2675
25.000000	78.775	43.4540
25.400000	78.792	41.6784
25.799999	78.821	40.6990
26.200001	78.911	40.2186
26.500000	79.015	40.0083
26.900000	79.187	39.8475
27.200001	79.339	39.7971
27.600000	79.575	39.7181
28.000000	79.830	39.3711
28.500000	80.084	38.3550
29.000000	80.163	37.2348
29.500000	80.092	37.0171
30.000000	80.039	38.0545
30.400000	80.106	39.2361
30.700001	80.219	39.9252
31.100000	80.399	40.2819
31.500000	80.559	40.0004
32.000000	80.685	39.0027
32.500000	80.713	37.5651
33.000000	80.629	36.0525
33.500000	80.459	34.9995
34.000000	80.312	34.7114
34.500000	80.304	34.6802
35.000000	80.416	34.0723
35.500000	80.524	32.6970
36.000000	80.565	31.1869
36.500000	80.597	30.0120
37.000000	80.674	28.8971
37.500000	80.740	27.4533
38.200001	80.657	25.7255
38.700001	80.543	25.7322
39.500000	80.641	26.9957
40.000000	80.826	27.0508
40.599998	80.957	26.2858
41.200001	80.977	25.7475
41.799999	81.017	25.4893
42.500000	81.065	24.5740
43.099998	80.978	23.7044
43.700001	80.872	23.8067
44.400002	80.983	24.3389
45.000000	81.207	23.4649
45.500000	81.292	21.8248
46.200001	81.194	19.9586
46.799999	81.106	19.7097
47.500000	81.212	19.7261
48.200001	81.372	18.5735
48.700001	81.373	17.3283
49.400002	81.201	16.3538
50.000000	81.043	16.7946
50.799999	81.057	18.0782
51.500000	81.217	18.1937
52.200001	81.304	17.2405
53.000000	81.282	16.1169
53.799999	81.286	15.1402
54.500000	81.297	13.8703
55.200001	81.242	12.6425
56.000000	81.182	12.0430
57.000000	81.268	11.9376
58.000000	81.441	11.7492
59.000000	81.606	11.6922
60.000000	81.754	11.7052
60.799999	81.823	11.5155
61.500000	81.822	11.2309
62.200001	81.767	10.8689
63.000000	81.634	10.3862
64.000000	81.415	10.1725
65.000000	81.335	9.8943
66.000000	81.297	8.4255
67.000000	81.192	7.2509
68.000000	81.253	6.5948
69.000000	81.342	5.1826
70.000000	81.277	4.3465
71.000000	81.250	4.7274
72.000000	81.309	4.9679
73.000000	81.329	4.6191
74.000000	81.265	4.0450
75.000000	81.196	3.6855
76.199997	81.232	2.7786
77.500000	81.250	1.0555
78.800003	81.278	-0.1496
80.000000	81.313	-1.1918
81.199997	81.215	-1.5729
82.500000	81.156	-0.5096
83.800003	81.246	-0.1308
85.000000	81.241	-0.9863
86.199997	81.085	-1.7776
87.500000	80.986	-1.9795
88.500000	80.987	-2.4317
90.000000	81.010	-3.2601
91.199997	81.049	-3.7349
92.500000	81.159	-4.2989
93.800003	81.210	-5.6174
95.000000	81.108	-6.6853
96.199997	80.963	-6.9610
97.500000	80.906	-6.9475
98.800003	80.898	-7.6268
100.000000	80.824	-8.5153
101.500000	80.720	-9.1181
103.000000	80.720	-9.4780
104.400002	80.754	-10.0407
106.000000	80.728	-10.1095
107.500000	80.810	-9.4292
109.000000	80.930	-9.7936
110.599998	80.821	-10.7951
112.000000	80.648	-10.9474
113.800003	80.547	-11.2860
115.000000	80.502	-11.9075
117.199997	80.434	-12.5484
118.000000	80.460	-12.8780
120.599998	80.283	-14.8227
122.000000	80.087	-15.1249
124.099998	79.910	-15.2466
125.000000	79.868	-15.4667
126.500000	79.788	-15.9270
128.000000	79.694	-15.8979
131.500000	79.795	-15.0918
132.000000	79.833	-15.0964
134.000000	79.954	-15.5891
136.000000	79.897	-15.9949
138.000000	79.785	-15.0833
140.000000	79.854	-14.6750
143.000000	79.740	-18.2342
145.000000	79.401	-19.0064
147.500000	79.499	-16.9895
150.000000	79.794	-16.8711
152.500000	79.617	-17.6144
155.000000	79.315	-17.4556
157.500000	79.174	-17.6784
160.000000	79.055	-17.6105
162.500000	78.967	-17.6613
165.000000	78.866	-19.1248
167.500000	78.829	-20.5579
170.000000	78.878	-20.8103
172.500000	78.906	-19.9345
175.000000	78.913	-19.6829
177.500000	78.982	-20.5609
180.000000	79.084	-22.4193
182.500000	78.904	-23.9714
185.000000	78.562	-23.3108
187.500000	78.559	-21.6617
190.000000	78.801	-21.8365
192.500000	78.831	-23.1706
195.000000	78.623	-23.6780
197.500000	78.352	-23.1888
200.000000	78.091	-22.4149
203.000000	77.873	-21.3737
206.000000	77.840	-20.6222
209.000000	77.924	-20.8253
212.000000	78.010	-22.1847
214.000000	77.989	-23.2700
218.000000	77.690	-24.6633
220.000000	77.479	-24.8482
224.000000	77.291	-23.8148
227.000000	77.269	-23.1618
230.000000	77.202	-23.2511
233.000000	77.178	-23.1151
236.000000	77.184	-22.2991
240.000000	77.149	-22.0821
243.000000	77.090	-23.3966
247.000000	76.823	-24.8848
250.000000	76.460	-24.9238
254.000000	75.977	-23.3207
258.000000	75.885	-19.8009
262.000000	76.051	-16.8216
265.000000	76.211	-16.5745
269.000000	76.309	-17.9643
272.000000	76.223	-18.8111
276.000000	76.043	-19.2097
280.000000	76.018	-18.6145
285.000000	76.039	-19.4800
290.000000	76.221	-21.3185
295.000000	76.630	-20.5421
300.000000	76.707	-19.8102
304.000000	76.479	-19.0939
307.000000	76.334	-19.1423
311.000000	76.207	-19.8374
315.000000	76.013	-19.9029
320.000000	75.720	-19.2982
325.000000	75.702	-20.4669
330.000000	75.904	-21.6730
335.000000	75.898	-20.1764
340.000000	75.567	-18.3015
345.000000	75.229	-19.1924
350.000000	75.415	-20.2356
355.000000	75.501	-18.8189
360.000000	75.225	-17.7656
365.000000	75.091	-16.9482
370.000000	75.023	-16.6112
375.000000	74.869	-16.8809
382.000000	74.778	-17.0390
387.000000	74.808	-16.7407
395.000000	74.696	-16.5213
400.000000	74.698	-15.4329
406.000000	74.490	-15.6249
412.000000	74.257	-16.6569
418.000000	74.224	-16.9287
425.000000	74.195	-16.1599
431.000000	74.125	-15.7135
437.000000	74.192	-15.2651
444.000000	74.185	-14.2624
450.000000	74.071	-13.7752
455.000000	73.994	-13.9812
462.000000	73.901	-13.7761
468.000000	73.923	-12.4995
475.000000	74.060	-11.7489
482.000000	73.922	-11.9746
487.000000	73.691	-11.8767
494.000000	73.505	-10.7381
500.000000	73.501	-10.1014
508.000000	73.511	-9.3228
515.000000	73.526	-8.6942
522.000000	73.366	-8.9514
530.000000	73.169	-8.9410
538.000000	73.030	-8.5726
545.000000	73.034	-8.4912
552.000000	73.043	-8.3121
560.000000	72.976	-7.1153
570.000000	72.648	-7.6725
580.000000	72.536	-6.9578
590.000000	72.462	-6.4137
600.000000	72.717	-2.7525
608.000000	72.998	-0.8643
615.000000	72.917	0.0638
622.000000	72.688	0.8091
630.000000	72.492	0.7446
640.000000	72.530	-0.0155
650.000000	72.487	0.2996
660.000000	72.254	2.0409
670.000000	72.208	3.4990
680.000000	72.473	4.9563
690.000000	72.806	6.5079
700.000000	72.608	6.8571
710.000000	72.226	7.2047
720.000000	72.012	6.3339
730.000000	71.986	6.6713
740.000000	72.159	8.3322
750.000000	72.454	9.2859
762.000000	72.236	11.8432
775.000000	72.036	15.1772
788.000000	72.008	14.6207
800.000000	71.745	13.4480
812.000000	71.712	13.3406
825.000000	72.073	15.5819
838.000000	72.414	17.8905
850.000000	72.251	20.2583
862.000000	72.047	20.9176
875.000000	71.924	21.1904
885.000000	71.750	22.3211
900.000000	71.670	22.7201
912.000000	71.823	22.0557
925.000000	71.993	22.0614
938.000000	72.284	22.9365
950.000000	72.487	24.4513
962.000000	72.532	25.0360
975.000000	72.653	15.1835
988.000000	72.977	-37.4126
1000.000000	73.070	-152.5603
1015.000000	72.523	73.2943
1030.000000	72.166	32.8140
1044.000000	72.266	29.0845
1060.000000	72.492	31.1663
1075.000000	72.578	32.3787
1090.000000	72.641	32.2743
1106.000000	72.732	32.8266
1120.000000	72.736	34.1561
1138.000000	72.627	35.0987
1150.000000	72.550	35.3517
1172.000000	72.698	35.7245
1180.000000	72.792	36.0154
1206.000000	72.986	36.9091
1220.000000	73.063	37.1734
1241.000000	73.255	38.1789
1250.000000	73.266	38.8005
1265.000000	73.226	39.7963
1280.000000	73.223	40.3859
1315.000000	73.518	41.1896
1320.000000	73.542	41.3021
1340.000000	73.544	41.5221
1360.000000	73.479	41.8622
1380.000000	73.499	42.1618
1400.000000	73.620	42.3633
1430.000000	73.546	43.8805
1450.000000	73.338	45.3486
1475.000000	73.322	48.1754
1500.000000	73.671	51.9320
1525.000000	74.101	53.9719
1550.000000	74.264	54.0282
1575.000000	74.414	54.1446
1600.000000	74.537	54.1188
1625.000000	74.600	54.6816
1650.000000	74.647	55.4148
1675.000000	74.731	56.2047
1700.000000	74.842	57.4615
1725.000000	74.947	57.8403
1750.000000	74.937	58.2947
1775.000000	74.930	59.0430
1800.000000	75.074	59.9532
1825.000000	75.223	60.9402
1850.000000	75.389	61.5128
1875.000000	75.583	62.4832
1900.000000	75.736	63.8005
1925.000000	75.853	64.5743
1950.000000	75.981	65.3585
1975.000000	76.123	66.6193
2000.000000	76.221	67.4960
2030.000000	76.325	67.4544
2060.000000	76.469	68.0075
2090.000000	76.663	69.2773
2120.000000	76.883	70.2196
2140.000000	77.020	70.6419
2180.000000	77.278	71.4373
2200.000000	77.386	71.6789
2240.000000	77.642	72.3666
2270.000000	77.896	73.3939
2300.000000	78.152	74.2484
2330.000000	78.367	74.7255
2360.000000	78.535	75.2514
2400.000000	78.746	75.8407
2430.000000	78.968	76.1776
2470.000000	79.317	76.2403
2500.000000	79.584	76.1573
2540.000000	79.919	76.1856
2580.000000	80.134	76.2039
2620.000000	80.325	76.0883
2650.000000	80.544	76.1022
2690.000000	80.881	76.0657
2720.000000	81.122	75.9003
2760.000000	81.436	75.7032
2800.000000	81.735	75.3451
2850.000000	82.126	74.2523
2900.000000	82.468	72.9902
2950.000000	82.784	72.0359
3000.000000	83.046	70.9583
3040.000000	83.173	70.0547
3070.000000	83.272	69.3272
3110.000000	83.421	68.1568
3150.000000	83.597	66.8337
3200.000000	83.822	65.2628
3250.000000	84.065	63.8658
3300.000000	84.260	62.1589
3350.000000	84.386	60.2329
3400.000000	84.465	58.0984
3450.000000	84.479	56.1463
3500.000000	84.441	54.7099
3550.000000	84.382	53.5196
3600.000000	84.330	52.4871
3650.000000	84.302	51.4832
3700.000000	84.294	50.5035
3750.000000	84.291	49.5645
3820.000000	84.249	48.6287
3870.000000	84.210	47.9637
3950.000000	84.098	46.9290
4000.000000	84.024	46.6060
4060.000000	83.957	46.4790
4120.000000	83.919	46.5933
4180.000000	83.877	46.6145
4250.000000	83.854	46.4933
4310.000000	83.899	46.4030
4370.000000	83.940	46.4454
4440.000000	83.970	46.5208
4500.000000	83.982	46.5902
4550.000000	83.998	46.6156
4620.000000	84.031	46.7617
4680.000000	84.101	46.8242
4750.000000	84.240	46.9843
4820.000000	84.386	47.1704
4870.000000	84.482	47.2283
4940.000000	84.608	47.1899
5000.000000	84.730	47.0455
5080.000000	84.953	46.9219
5150.000000	85.191	46.5860
5220.000000	85.424	46.1378
5300.000000	85.666	45.5722
5380.000000	85.896	44.7644
5450.000000	86.120	43.7917
5520.000000	86.349	42.6100
5600.000000	86.587	40.9401
5700.000000	86.841	38.2162
5800.000000	87.046	35.3490
5900.000000	87.246	32.6116
6000.000000	87.412	29.6781
6080.000000	87.483	27.0084
6150.000000	87.494	24.5164
6220.000000	87.474	22.0132
6300.000000	87.428	19.2252
6400.000000	87.326	15.8356
6500.000000	87.146	12.8192
6600.000000	86.892	10.2244
6700.000000	86.623	8.1057
6800.000000	86.359	6.2379
6900.000000	86.143	4.7764
7000.000000	85.949	3.7033
7100.000000	85.765	2.7375
7200.000000	85.622	1.8016
7300.000000	85.547	0.8177
7400.000000	85.532	-0.2158
7500.000000	85.561	-1.3927
7620.000000	85.657	-3.2597
7750.000000	85.846	-6.3442
7880.000000	86.047	-10.5909
8000.000000	86.135	-15.7164
8120.000000	86.034	-22.0150
8250.000000	85.672	-29.7594
8380.000000	85.013	-37.4863
8500.000000	84.139	-43.5526
8620.000000	83.058	-48.0434
8750.000000	81.739	-50.9656
8850.000000	80.754	-51.8962
9000.000000	79.461	-52.4210
9120.000000	78.490	-52.7333
9250.000000	77.433	-52.2421
9380.000000	76.423	-50.6598
9500.000000	75.521	-48.7767
9620.000000	74.621	-46.4572
9750.000000	73.704	-43.7401
9880.000000	72.977	-41.0017
10000.000000	72.457	-37.9829
10150.000000	71.788	-33.8531
10300.000000	71.132	-29.9231
10440.000000	70.559	-25.8175
10600.000000	70.008	-20.7208
10750.000000	69.640	-16.1054
10900.000000	69.281	-11.5251
11060.000000	68.913	-6.7988
11200.000000	68.688	-2.5374
11380.000000	68.574	3.2257
11500.000000	68.501	6.8711
11720.000000	68.444	13.7895
11800.000000	68.503	16.1654
12060.000000	68.630	24.2372
12200.000000	68.717	28.4823
12410.000000	69.153	35.2792
12500.000000	69.354	37.9987
12650.000000	69.728	41.7728
12800.000000	70.269	45.1284
13150.000000	71.981	52.9114
13200.000000	72.291	54.0022
13400.000000	73.739	57.4830
13600.000000	75.527	58.7232
13800.000000	77.661	56.5600
14000.000000	79.929	49.0017
14300.000000	82.065	23.7852
14500.000000	81.875	3.0713
14750.000000	80.125	-14.6196
15000.000000	77.971	-20.7495
15250.000000	76.587	-21.0111
15500.000000	76.008	-21.2249
15750.000000	75.965	-21.5678
16000.000000	76.692	-23.3230
16250.000000	78.211	-31.2354
16500.000000	79.528	-51.3853
16750.000000	79.203	-81.6626
17000.000000	76.699	-106.7407
17250.000000	72.807	-119.8019
17500.000000	68.895	-147.1299
17750.000000	65.857	-7.5515
18000.000000	63.564	23.4033
18250.000000	61.758	-35.8008
18500.000000	60.528	-108.5156
18750.000000	59.742	-121.5537
19000.000000	59.134	-82.9219
19250.000000	58.631	59.5781
19500.000000	58.640	127.1836
19750.000000	60.191	77.9570
20000.000000	61.869	-67.1094
