* Measurement data measured by REW V5.20.5
* Source: Mic in at rear panel (Pink)(Realtek(R) Audio), MICROPHONE (마스), L, volume: 1.000
* Format: 128k Log Swept Sine, 1 sweep at -12.0 dBFS with no timing reference
* Dated: 2022. 4. 2 오후 7:24:44
* REW Settings:
*  C-weighting compensation: Off
*  Target level: 75.0 dB
* Note: 
* Measurement: 4월 2
* Smoothing: 1/24 octave
* Frequency Step: 1/48 octave
* Start Frequency: 20.300 Hz
*
* Freq(Hz)	SPL(dB)	Phase(degrees)
20.299999	91.427	-161.8387
20.600000	91.423	-162.1423
20.900000	91.414	-162.6747
21.200001	91.406	-163.1603
21.400000	91.400	-163.4723
21.799999	91.387	-164.1240
22.000000	91.378	-164.4809
22.400000	91.355	-165.2532
22.700001	91.336	-165.8648
23.000000	91.315	-166.4739
23.299999	91.294	-167.0420
23.600000	91.275	-167.5530
24.000000	91.272	-168.1776
24.299999	91.294	-168.6918
24.700001	91.346	-169.5888
25.000000	91.381	-170.4763
25.400000	91.387	-171.8654
25.799999	91.331	-173.1796
26.200001	91.238	-174.0526
26.500000	91.178	-174.3400
26.900000	91.160	-174.4089
27.200001	91.201	-174.4936
27.600000	91.300	-174.9818
28.000000	91.379	-175.9841
28.500000	91.370	-177.4940
29.000000	91.270	-178.5137
29.500000	91.189	-178.8365
30.000000	91.194	-179.0021
30.400000	91.233	-179.4148
30.700001	91.257	-179.9194
31.100000	91.261	179.3101
31.500000	91.236	178.6198
32.000000	91.194	177.9893
32.500000	91.174	177.4749
33.000000	91.168	176.8933
33.500000	91.153	176.2549
34.000000	91.131	175.6466
34.500000	91.116	175.0435
35.000000	91.106	174.3575
35.500000	91.086	173.5994
36.000000	91.051	172.8921
36.500000	91.016	172.3030
37.000000	90.997	171.7501
37.500000	90.988	171.1096
38.200001	90.961	170.0768
38.700001	90.928	169.4007
39.500000	90.871	168.5729
40.000000	90.838	168.1171
40.599998	90.790	167.5798
41.200001	90.726	167.1412
41.799999	90.668	166.8300
42.500000	90.629	166.4569
43.099998	90.610	166.0037
43.700001	90.587	165.4856
44.400002	90.558	164.8900
45.000000	90.537	164.3438
45.500000	90.516	163.8210
46.200001	90.471	163.0403
46.799999	90.421	162.4202
47.500000	90.366	161.7839
48.200001	90.319	161.2101
48.700001	90.287	160.8533
49.400002	90.245	160.4490
50.000000	90.217	160.1174
50.799999	90.185	159.5411
51.500000	90.138	158.9492
52.200001	90.076	158.4018
53.000000	90.008	157.8688
53.799999	89.949	157.4805
54.500000	89.927	157.2021
55.200001	89.927	156.7119
56.000000	89.891	155.9226
57.000000	89.800	155.3538
58.000000	89.767	154.7747
59.000000	89.653	153.7800
60.000000	89.481	153.4561
60.799999	89.408	153.3680
61.500000	89.364	153.1111
62.200001	89.320	152.7812
63.000000	89.281	152.2928
64.000000	89.225	151.3931
65.000000	89.132	150.4429
66.000000	89.011	149.8630
67.000000	88.931	149.7831
68.000000	88.919	149.6363
69.000000	88.886	149.2490
70.000000	88.826	148.9299
71.000000	88.771	148.5340
72.000000	88.693	148.0197
73.000000	88.597	147.6050
74.000000	88.514	147.2251
75.000000	88.430	146.8648
76.199997	88.334	146.6910
77.500000	88.270	146.7071
78.800003	88.218	146.5349
80.000000	88.114	146.3925
81.199997	88.011	146.4054
82.500000	87.896	146.0710
83.800003	87.788	145.5742
85.000000	87.697	144.5307
86.199997	87.486	143.4754
87.500000	87.240	143.9830
88.500000	87.259	145.3053
90.000000	87.613	146.5323
91.199997	87.921	146.2124
92.500000	88.073	144.9638
93.800003	87.957	143.8497
95.000000	87.712	143.9007
96.199997	87.569	144.5222
97.500000	87.538	144.0588
98.800003	87.449	142.7336
100.000000	87.360	141.5475
101.500000	87.259	140.3709
103.000000	87.189	139.7842
104.400002	87.104	139.6034
106.000000	87.013	139.9410
107.500000	86.964	139.9616
109.000000	86.898	139.4459
110.599998	86.793	138.6194
112.000000	86.710	137.9912
113.800003	86.615	137.3589
115.000000	86.553	137.4177
117.199997	86.541	138.2617
118.000000	86.567	138.5406
120.599998	86.587	137.5661
122.000000	86.395	136.5828
124.099998	86.100	136.0536
125.000000	86.025	135.9672
126.500000	85.954	135.8083
128.000000	85.900	135.6382
131.500000	85.702	135.3459
132.000000	85.674	135.3213
134.000000	85.585	135.0990
136.000000	85.505	134.8314
138.000000	85.407	134.5491
140.000000	85.259	134.2576
143.000000	85.098	133.9757
145.000000	85.058	133.7445
147.500000	84.989	133.5270
150.000000	84.858	133.0755
152.500000	84.718	132.4373
155.000000	84.616	132.3111
157.500000	84.555	132.9604
160.000000	84.492	133.3226
162.500000	84.381	132.8792
165.000000	84.253	132.3716
167.500000	84.158	132.2157
170.000000	84.063	132.2220
172.500000	83.950	132.1317
175.000000	83.833	132.0925
177.500000	83.737	132.1795
180.000000	83.651	132.0894
182.500000	83.526	131.7088
185.000000	83.364	131.4329
187.500000	83.224	131.3146
190.000000	83.128	130.9305
192.500000	83.051	130.3010
195.000000	82.985	130.1642
197.500000	82.950	130.6335
200.000000	82.897	131.1765
203.000000	82.816	131.5666
206.000000	82.809	131.9873
209.000000	82.831	132.2180
212.000000	82.653	132.1311
214.000000	82.495	132.1837
218.000000	82.338	131.6193
220.000000	82.290	131.2975
224.000000	82.207	131.1636
227.000000	82.136	131.2762
230.000000	82.030	131.4696
233.000000	81.903	131.6407
236.000000	81.791	131.6744
240.000000	81.670	131.7570
243.000000	81.596	132.0288
247.000000	81.523	132.2513
250.000000	81.459	132.2315
254.000000	81.349	132.0939
258.000000	81.204	132.1859
262.000000	81.081	132.6386
265.000000	81.002	132.8718
269.000000	80.872	133.0515
272.000000	80.768	133.1200
276.000000	80.689	133.1320
280.000000	80.649	133.1057
285.000000	80.543	133.1730
290.000000	80.427	133.3442
295.000000	80.284	133.6972
300.000000	80.164	134.2036
304.000000	80.082	134.4720
307.000000	80.014	134.5593
311.000000	79.939	134.4167
315.000000	79.870	134.2950
320.000000	79.773	134.6379
325.000000	79.689	135.0763
330.000000	79.601	135.4855
335.000000	79.514	135.9933
340.000000	79.401	136.6228
345.000000	79.241	137.2247
350.000000	79.158	137.3338
355.000000	79.152	137.2087
360.000000	79.112	137.5165
365.000000	79.019	137.8756
370.000000	78.917	138.0623
375.000000	78.827	138.1448
382.000000	78.718	138.4424
387.000000	78.626	138.8398
395.000000	78.463	139.5403
400.000000	78.369	139.9477
406.000000	78.301	140.2965
412.000000	78.252	140.5421
418.000000	78.151	140.8749
425.000000	78.031	141.4959
431.000000	77.954	142.0308
437.000000	77.894	142.3445
444.000000	77.798	142.5678
450.000000	77.688	142.7785
455.000000	77.617	143.0806
462.000000	77.560	143.7329
468.000000	77.509	144.3974
475.000000	77.402	144.8787
482.000000	77.284	145.2614
487.000000	77.215	145.5243
494.000000	77.164	145.9219
500.000000	77.149	146.3754
508.000000	77.119	146.9693
515.000000	77.063	147.5548
522.000000	76.981	148.2555
530.000000	76.893	149.0366
538.000000	76.814	149.7361
545.000000	76.774	150.2332
552.000000	76.722	150.6784
560.000000	76.630	151.1754
570.000000	76.586	151.7951
580.000000	76.528	152.4503
590.000000	76.405	153.1711
600.000000	76.314	153.9398
608.000000	76.255	154.5116
615.000000	76.203	155.2216
622.000000	76.131	155.9882
630.000000	76.047	156.6198
640.000000	75.997	157.2908
650.000000	75.977	158.1282
660.000000	75.960	158.8712
670.000000	75.916	159.5784
680.000000	75.884	160.3980
690.000000	75.884	161.2795
700.000000	75.834	162.1547
710.000000	75.751	163.0119
720.000000	75.703	163.8948
730.000000	75.679	164.7652
740.000000	75.650	165.6107
750.000000	75.651	166.3966
762.000000	75.646	167.3872
775.000000	75.590	168.5067
788.000000	75.563	169.7142
800.000000	75.532	170.7302
812.000000	75.511	171.9040
825.000000	75.511	173.1522
838.000000	75.474	174.0224
850.000000	75.448	174.7539
862.000000	75.443	175.6875
875.000000	75.476	176.7565
885.000000	75.518	177.6657
900.000000	75.521	179.0430
912.000000	75.510	-179.7496
925.000000	75.535	-178.6319
938.000000	75.552	-177.6952
950.000000	75.535	-176.7670
962.000000	75.538	-175.9502
975.000000	75.575	-175.3709
988.000000	75.561	-175.1097
1000.000000	75.523	-174.8531
1015.000000	75.596	-173.2555
1030.000000	75.641	-171.4747
1044.000000	75.618	-170.1219
1060.000000	75.618	-168.5216
1075.000000	75.630	-167.2313
1090.000000	75.668	-165.6732
1106.000000	75.729	-163.7067
1120.000000	75.809	-162.1433
1138.000000	75.958	-160.3141
1150.000000	76.051	-159.2078
1172.000000	76.189	-157.1285
1180.000000	76.207	-156.2755
1206.000000	76.230	-153.4976
1220.000000	76.297	-151.7003
1241.000000	76.453	-148.6369
1250.000000	76.541	-147.3209
1265.000000	76.754	-145.1660
1280.000000	77.053	-142.9677
1315.000000	77.974	-138.3442
1320.000000	78.125	-137.8287
1340.000000	78.782	-135.9663
1360.000000	79.466	-134.6366
1380.000000	80.121	-134.0392
1400.000000	80.722	-134.1771
1430.000000	81.493	-135.4174
1450.000000	81.922	-136.6378
1475.000000	82.356	-138.5074
1500.000000	82.705	-140.3434
1525.000000	82.984	-141.9476
1550.000000	83.199	-143.2330
1575.000000	83.382	-144.2100
1600.000000	83.556	-145.0912
1625.000000	83.720	-145.8366
1650.000000	83.891	-146.3335
1675.000000	84.057	-146.7042
1700.000000	84.242	-146.9781
1725.000000	84.448	-147.2179
1750.000000	84.645	-147.4293
1775.000000	84.847	-147.6394
1800.000000	85.062	-147.8408
1825.000000	85.288	-148.0472
1850.000000	85.537	-148.3198
1875.000000	85.784	-148.6317
1900.000000	86.036	-148.9725
1925.000000	86.303	-149.3816
1950.000000	86.572	-149.8527
1975.000000	86.845	-150.3802
2000.000000	87.127	-151.0201
2030.000000	87.477	-151.9837
2060.000000	87.821	-153.1317
2090.000000	88.160	-154.4304
2120.000000	88.492	-155.9368
2140.000000	88.706	-157.0825
2180.000000	89.124	-159.6904
2200.000000	89.322	-161.1929
2240.000000	89.661	-164.5592
2270.000000	89.870	-167.2371
2300.000000	90.042	-170.0251
2330.000000	90.168	-172.9987
2360.000000	90.247	-176.0849
2400.000000	90.267	179.7580
2430.000000	90.216	176.7407
2470.000000	90.069	172.9103
2500.000000	89.908	170.2329
2540.000000	89.635	167.0139
2580.000000	89.310	164.3066
2620.000000	88.938	162.0527
2650.000000	88.644	160.6415
2690.000000	88.243	159.2226
2720.000000	87.940	158.4905
2760.000000	87.546	157.9113
2800.000000	87.174	157.7120
2850.000000	86.764	157.9980
2900.000000	86.438	158.6478
2950.000000	86.184	159.1996
3000.000000	85.956	159.4327
3040.000000	85.774	159.4814
3070.000000	85.627	159.5480
3110.000000	85.417	159.8058
3150.000000	85.198	160.1969
3200.000000	84.935	160.7960
3250.000000	84.697	161.6115
3300.000000	84.477	162.6191
3350.000000	84.264	163.7675
3400.000000	84.078	165.0433
3450.000000	83.931	166.3237
3500.000000	83.821	167.6135
3550.000000	83.719	168.8833
3600.000000	83.631	170.2278
3650.000000	83.571	171.6057
3700.000000	83.531	172.9350
3750.000000	83.507	174.2820
3820.000000	83.507	176.1031
3870.000000	83.539	177.3479
3950.000000	83.628	179.0325
4000.000000	83.720	179.8189
4060.000000	83.844	-179.4985
4120.000000	83.966	-179.0011
4180.000000	84.066	-178.8085
4250.000000	84.148	-179.0109
4310.000000	84.188	-179.4838
4370.000000	84.194	179.7542
4440.000000	84.175	178.3937
4500.000000	84.110	176.9947
4550.000000	84.002	175.7708
4620.000000	83.761	174.0870
4680.000000	83.466	172.8190
4750.000000	83.020	171.8937
4820.000000	82.488	171.7278
4870.000000	82.081	172.0886
4940.000000	81.503	173.2157
5000.000000	81.003	174.7631
5080.000000	80.362	177.6934
5150.000000	79.869	-178.9069
5220.000000	79.459	-174.9361
5300.000000	79.098	-169.9835
5380.000000	78.866	-164.8275
5450.000000	78.758	-159.9704
5520.000000	78.753	-154.9500
5600.000000	78.884	-149.5888
5700.000000	79.173	-143.4562
5800.000000	79.588	-137.6854
5900.000000	80.134	-132.5356
6000.000000	80.800	-128.3489
6080.000000	81.405	-125.6075
6150.000000	81.978	-123.6784
6220.000000	82.569	-122.1972
6300.000000	83.240	-121.1444
6400.000000	84.053	-120.8232
6500.000000	84.824	-121.6124
6600.000000	85.499	-123.3813
6700.000000	86.019	-125.9277
6800.000000	86.346	-128.7951
6900.000000	86.465	-131.2138
7000.000000	86.491	-132.2528
7100.000000	86.683	-132.2969
7200.000000	87.006	-133.2467
7300.000000	87.219	-134.9247
7400.000000	87.372	-136.1176
7500.000000	87.578	-136.8672
7620.000000	87.968	-137.9552
7750.000000	88.584	-140.6642
7880.000000	89.230	-147.3539
8000.000000	89.422	-158.8199
8120.000000	88.674	-173.8523
8250.000000	86.465	172.9396
8380.000000	83.037	170.6611
8500.000000	79.436	-179.0841
8620.000000	76.531	-158.4586
8750.000000	76.040	-132.2468
8850.000000	77.513	-116.2863
9000.000000	80.602	-104.7214
9120.000000	82.804	-106.3946
9250.000000	84.289	-117.5196
9380.000000	84.466	-133.0387
9500.000000	83.550	-144.9574
9620.000000	81.990	-151.6157
9750.000000	80.069	-153.5890
9880.000000	78.254	-151.9037
10000.000000	76.803	-148.5576
10150.000000	75.231	-143.2177
10300.000000	73.868	-136.9660
10440.000000	72.817	-130.6335
10600.000000	71.805	-122.5920
10750.000000	70.950	-114.7561
10900.000000	70.190	-107.1281
11060.000000	69.522	-98.6078
11200.000000	68.988	-91.1138
11380.000000	68.416	-81.3951
11500.000000	68.089	-74.8223
11720.000000	67.633	-62.7283
11800.000000	67.507	-58.1597
12060.000000	67.259	-43.3598
12200.000000	67.176	-35.5701
12410.000000	67.167	-23.8571
12500.000000	67.220	-18.5269
12650.000000	67.389	-9.2961
12800.000000	67.653	0.0480
13150.000000	68.516	20.6079
13200.000000	68.677	23.4495
13400.000000	69.420	34.7759
13600.000000	70.394	45.7925
13800.000000	71.699	56.2403
14000.000000	73.488	65.6053
14300.000000	77.350	73.4250
14500.000000	80.121	68.7141
14750.000000	81.924	45.7626
15000.000000	80.669	19.9177
15250.000000	77.295	11.4162
15500.000000	73.711	16.3973
15750.000000	70.883	26.7478
16000.000000	68.864	39.4121
16250.000000	67.404	53.9988
16500.000000	66.209	70.4987
16750.000000	65.436	90.7700
17000.000000	66.086	117.3862
17250.000000	69.213	142.7125
17500.000000	72.599	153.5718
17750.000000	74.753	151.6864
18000.000000	76.246	148.9207
18250.000000	77.790	146.5255
18500.000000	79.089	139.1344
18750.000000	79.354	126.2524
19000.000000	78.243	115.5752
19250.000000	76.160	113.9002
19500.000000	73.867	120.6530
19750.000000	71.956	131.5301
20000.000000	70.962	139.4139
