* Measurement data measured by REW V5.20.13
* Source: EXCL: Mic in at rear panel (Pink)(Realtek(R) Audio), MICROPHONE (마스), L, volume: 1.000
* Format: 256k Log Swept Sine, 1 sweep at -12.0 dBFS with no timing reference
* Dated: 2022. 12. 24 오후 9:11:34
* REW Settings:
*  C-weighting compensation: Off
*  Target level: 75.0 dB
* Note: 
* Measurement: L
* Smoothing: 1/24 octave
* Frequency Step: 1/48 octave
* Start Frequency: 20.300 Hz
*
* Freq(Hz)	SPL(dB)	Phase(degrees)
20.299999	85.230	-2.0161
20.600000	85.235	-2.0656
20.900000	85.243	-2.1481
21.200001	85.246	-2.2123
21.400000	85.247	-2.2510
21.799999	85.248	-2.3432
22.000000	85.249	-2.4081
22.400000	85.251	-2.5899
22.700001	85.252	-2.7726
23.000000	85.251	-2.9868
23.299999	85.247	-3.2172
23.600000	85.242	-3.4503
24.000000	85.237	-3.7491
24.299999	85.235	-3.9589
24.700001	85.234	-4.2172
25.000000	85.235	-4.3889
25.400000	85.238	-4.5730
25.799999	85.245	-4.6968
26.200001	85.264	-4.7913
26.500000	85.284	-4.8850
26.900000	85.308	-5.0859
27.200001	85.315	-5.2909
27.600000	85.298	-5.5697
28.000000	85.256	-5.7212
28.500000	85.197	-5.5932
29.000000	85.184	-5.2543
29.500000	85.227	-5.0975
30.000000	85.276	-5.4026
30.400000	85.281	-5.8950
30.700001	85.259	-6.2831
31.100000	85.207	-6.6797
31.500000	85.152	-6.9002
32.000000	85.108	-7.0487
32.500000	85.094	-7.2527
33.000000	85.089	-7.5730
33.500000	85.085	-7.9300
34.000000	85.081	-8.2658
34.500000	85.077	-8.5852
35.000000	85.065	-8.8614
35.500000	85.048	-9.0064
36.000000	85.040	-8.9877
36.500000	85.054	-8.9006
37.000000	85.082	-8.8765
37.500000	85.105	-8.9270
38.200001	85.128	-8.9698
38.700001	85.157	-9.0091
39.500000	85.212	-9.5196
40.000000	85.200	-10.0975
40.599998	85.124	-10.6311
41.200001	85.049	-10.7202
41.799999	85.038	-10.7139
42.500000	85.067	-11.2144
43.099998	85.043	-11.9466
43.700001	84.976	-12.4626
44.400002	84.921	-12.7323
45.000000	84.907	-13.0167
45.500000	84.890	-13.3471
46.200001	84.852	-13.7302
46.799999	84.835	-13.9881
47.500000	84.821	-14.5053
48.200001	84.748	-15.1000
48.700001	84.663	-15.2265
49.400002	84.580	-14.8296
50.000000	84.593	-14.3800
50.799999	84.668	-14.3278
51.500000	84.689	-14.6277
52.200001	84.674	-14.7267
53.000000	84.687	-14.6000
53.799999	84.734	-14.6692
54.500000	84.766	-14.9685
55.200001	84.774	-15.4113
56.000000	84.744	-15.9438
57.000000	84.690	-16.2958
58.000000	84.682	-16.6351
59.000000	84.659	-17.1750
60.000000	84.611	-17.5821
60.799999	84.552	-17.7330
61.500000	84.507	-17.5658
62.200001	84.509	-17.3337
63.000000	84.523	-17.4367
64.000000	84.461	-17.7199
65.000000	84.397	-17.6231
66.000000	84.390	-17.7819
67.000000	84.366	-18.4110
68.000000	84.292	-19.1010
69.000000	84.203	-19.4642
70.000000	84.154	-19.5623
71.000000	84.139	-19.6391
72.000000	84.132	-19.7215
73.000000	84.124	-19.8307
74.000000	84.097	-19.9667
75.000000	84.056	-20.0043
76.199997	84.029	-20.0565
77.500000	83.998	-20.3374
78.800003	83.963	-20.5480
80.000000	83.942	-20.8373
81.199997	83.891	-21.1245
82.500000	83.832	-21.2421
83.800003	83.794	-21.3567
85.000000	83.769	-21.6865
86.199997	83.719	-22.1209
87.500000	83.649	-22.3939
88.500000	83.605	-22.3070
90.000000	83.625	-22.0637
91.199997	83.637	-22.2448
92.500000	83.609	-22.3424
93.800003	83.602	-22.5350
95.000000	83.578	-23.0121
96.199997	83.512	-23.5555
97.500000	83.405	-23.7604
98.800003	83.350	-23.5489
100.000000	83.347	-23.4667
101.500000	83.333	-23.6152
103.000000	83.288	-23.8135
104.400002	83.245	-23.9392
106.000000	83.212	-24.1057
107.500000	83.183	-24.2564
109.000000	83.151	-24.3521
110.599998	83.103	-24.4425
112.000000	83.054	-24.5348
113.800003	83.003	-24.7307
115.000000	82.982	-24.8661
117.199997	82.994	-24.9099
118.000000	83.019	-24.9116
120.599998	83.027	-25.4420
122.000000	82.931	-25.5710
124.099998	82.802	-25.4516
125.000000	82.766	-25.4532
126.500000	82.718	-25.5301
128.000000	82.682	-25.5904
131.500000	82.633	-25.6261
132.000000	82.628	-25.6699
134.000000	82.583	-25.9799
136.000000	82.507	-26.1959
138.000000	82.448	-26.1603
140.000000	82.419	-26.0972
143.000000	82.374	-26.1390
145.000000	82.335	-26.2916
147.500000	82.270	-26.4376
150.000000	82.230	-26.5715
152.500000	82.186	-26.7513
155.000000	82.132	-26.8034
157.500000	82.084	-26.8153
160.000000	82.053	-26.8856
162.500000	82.022	-26.9767
165.000000	81.973	-26.9904
167.500000	81.908	-26.9696
170.000000	81.841	-26.9501
172.500000	81.787	-26.8886
175.000000	81.750	-26.8073
177.500000	81.724	-26.7857
180.000000	81.694	-26.7785
182.500000	81.664	-26.7254
185.000000	81.636	-26.6517
187.500000	81.618	-26.5825
190.000000	81.603	-26.5287
192.500000	81.581	-26.4990
195.000000	81.565	-26.5204
197.500000	81.567	-26.6432
200.000000	81.579	-26.7996
203.000000	81.580	-26.9654
206.000000	81.559	-27.1404
209.000000	81.526	-27.2870
212.000000	81.487	-27.4257
214.000000	81.459	-27.5387
218.000000	81.416	-27.8469
220.000000	81.398	-27.9896
224.000000	81.348	-28.1715
227.000000	81.311	-28.2550
230.000000	81.279	-28.3226
233.000000	81.242	-28.3605
236.000000	81.200	-28.4262
240.000000	81.143	-28.5790
243.000000	81.097	-28.6876
247.000000	81.036	-28.7716
250.000000	81.000	-28.8133
254.000000	80.955	-28.8544
258.000000	80.897	-28.8792
262.000000	80.835	-28.9055
265.000000	80.791	-28.9250
269.000000	80.740	-28.9272
272.000000	80.710	-28.9224
276.000000	80.682	-28.9558
280.000000	80.657	-28.9424
285.000000	80.619	-28.8909
290.000000	80.578	-28.9563
295.000000	80.540	-29.0175
300.000000	80.509	-29.0185
304.000000	80.481	-28.9969
307.000000	80.458	-28.9997
311.000000	80.425	-29.0588
315.000000	80.386	-29.1646
320.000000	80.343	-29.2755
325.000000	80.312	-29.3062
330.000000	80.273	-29.2412
335.000000	80.235	-29.2241
340.000000	80.204	-29.3026
345.000000	80.165	-29.3566
350.000000	80.123	-29.3681
355.000000	80.085	-29.3675
360.000000	80.038	-29.3655
365.000000	79.985	-29.3939
370.000000	79.941	-29.4532
375.000000	79.901	-29.4769
382.000000	79.850	-29.4891
387.000000	79.810	-29.5093
395.000000	79.732	-29.4441
400.000000	79.687	-29.3851
406.000000	79.637	-29.4081
412.000000	79.588	-29.4407
418.000000	79.530	-29.4066
425.000000	79.462	-29.3542
431.000000	79.407	-29.3156
437.000000	79.359	-29.2703
444.000000	79.308	-29.1584
450.000000	79.265	-29.0638
455.000000	79.226	-28.9716
462.000000	79.170	-28.8489
468.000000	79.129	-28.8119
475.000000	79.082	-28.7206
482.000000	79.036	-28.5703
487.000000	79.006	-28.5024
494.000000	78.968	-28.3877
500.000000	78.934	-28.2423
508.000000	78.893	-28.0382
515.000000	78.853	-27.8603
522.000000	78.810	-27.7373
530.000000	78.767	-27.6004
538.000000	78.722	-27.4928
545.000000	78.682	-27.3833
552.000000	78.639	-27.2680
560.000000	78.595	-27.1380
570.000000	78.548	-26.9233
580.000000	78.497	-26.6486
590.000000	78.441	-26.4558
600.000000	78.385	-26.2136
608.000000	78.342	-26.0067
615.000000	78.303	-25.8029
622.000000	78.263	-25.5523
630.000000	78.223	-25.2487
640.000000	78.180	-24.9243
650.000000	78.146	-24.6524
660.000000	78.109	-24.3549
670.000000	78.054	-24.0279
680.000000	77.995	-23.6743
690.000000	77.949	-23.3134
700.000000	77.909	-22.9012
710.000000	77.874	-22.4670
720.000000	77.842	-22.0338
730.000000	77.806	-21.6365
740.000000	77.776	-21.2062
750.000000	77.757	-20.7183
762.000000	77.739	-20.1563
775.000000	77.714	-19.6783
788.000000	77.688	-19.1596
800.000000	77.669	-18.5605
812.000000	77.650	-17.9469
825.000000	77.640	-17.3364
838.000000	77.642	-16.7559
850.000000	77.649	-16.1804
862.000000	77.659	-15.6404
875.000000	77.672	-15.0332
885.000000	77.684	-14.5338
900.000000	77.710	-13.8324
912.000000	77.745	-13.3201
925.000000	77.793	-12.8374
938.000000	77.833	-12.3770
950.000000	77.873	-11.9058
962.000000	77.918	-11.4563
975.000000	77.963	-11.0491
988.000000	78.005	-10.7142
1000.000000	78.051	-10.4673
1015.000000	78.123	-10.1812
1030.000000	78.206	-9.8454
1044.000000	78.283	-9.5820
1060.000000	78.360	-9.3132
1075.000000	78.416	-9.0828
1090.000000	78.475	-8.9264
1106.000000	78.552	-8.8179
1120.000000	78.629	-8.7235
1138.000000	78.719	-8.6327
1150.000000	78.768	-8.6092
1172.000000	78.854	-8.6073
1180.000000	78.885	-8.6110
1206.000000	78.985	-8.6120
1220.000000	79.033	-8.6098
1241.000000	79.098	-8.5921
1250.000000	79.125	-8.5765
1265.000000	79.171	-8.5447
1280.000000	79.219	-8.5094
1315.000000	79.307	-8.4357
1320.000000	79.318	-8.4252
1340.000000	79.354	-8.3687
1360.000000	79.393	-8.2816
1380.000000	79.447	-8.1616
1400.000000	79.500	-8.0415
1430.000000	79.567	-7.7709
1450.000000	79.613	-7.5630
1475.000000	79.681	-7.2852
1500.000000	79.749	-6.9872
1525.000000	79.818	-6.6715
1550.000000	79.897	-6.3362
1575.000000	79.983	-6.0338
1600.000000	80.064	-5.6911
1625.000000	80.153	-5.3407
1650.000000	80.255	-4.9517
1675.000000	80.361	-4.5599
1700.000000	80.466	-4.2110
1725.000000	80.572	-3.8538
1750.000000	80.683	-3.4987
1775.000000	80.798	-3.1567
1800.000000	80.922	-2.7914
1825.000000	81.057	-2.4058
1850.000000	81.193	-2.0373
1875.000000	81.332	-1.7040
1900.000000	81.480	-1.3806
1925.000000	81.634	-1.0716
1950.000000	81.795	-0.7991
1975.000000	81.965	-0.5348
2000.000000	82.144	-0.2798
2030.000000	82.369	-0.0292
2060.000000	82.595	0.1494
2090.000000	82.827	0.2694
2120.000000	83.074	0.2934
2140.000000	83.246	0.2793
2180.000000	83.598	0.1689
2200.000000	83.778	0.0607
2240.000000	84.152	-0.2712
2270.000000	84.441	-0.6494
2300.000000	84.735	-1.1597
2330.000000	85.034	-1.8030
2360.000000	85.338	-2.5658
2400.000000	85.744	-3.8075
2430.000000	86.046	-4.9193
2470.000000	86.440	-6.6854
2500.000000	86.728	-8.2263
2540.000000	87.096	-10.5520
2580.000000	87.433	-13.1691
2620.000000	87.732	-16.0649
2650.000000	87.924	-18.4127
2690.000000	88.130	-21.7319
2720.000000	88.244	-24.3229
2760.000000	88.339	-27.8555
2800.000000	88.367	-31.3851
2850.000000	88.313	-35.6541
2900.000000	88.170	-39.6290
2950.000000	87.953	-43.2129
3000.000000	87.680	-46.3251
3040.000000	87.433	-48.4521
3070.000000	87.239	-49.8332
3110.000000	86.974	-51.4090
3150.000000	86.710	-52.7008
3200.000000	86.392	-53.9387
3250.000000	86.092	-54.8279
3300.000000	85.817	-55.4516
3350.000000	85.569	-55.8796
3400.000000	85.345	-56.1229
3450.000000	85.148	-56.2198
3500.000000	84.978	-56.2094
3550.000000	84.830	-56.0967
3600.000000	84.705	-55.9132
3650.000000	84.602	-55.6469
3700.000000	84.516	-55.2879
3750.000000	84.453	-54.8557
3820.000000	84.404	-54.2275
3870.000000	84.395	-53.7877
3950.000000	84.426	-53.1056
4000.000000	84.474	-52.7368
4060.000000	84.561	-52.3848
4120.000000	84.678	-52.1687
4180.000000	84.820	-52.1239
4250.000000	85.017	-52.3325
4310.000000	85.203	-52.7697
4370.000000	85.392	-53.5022
4440.000000	85.611	-54.8114
4500.000000	85.789	-56.3413
4550.000000	85.920	-57.9058
4620.000000	86.057	-60.5512
4680.000000	86.114	-63.1821
4750.000000	86.092	-66.5558
4820.000000	85.953	-70.0972
4870.000000	85.778	-72.5894
4940.000000	85.428	-75.8076
5000.000000	85.041	-78.1600
5080.000000	84.433	-80.5160
5150.000000	83.847	-81.7215
5220.000000	83.244	-82.0822
5300.000000	82.578	-81.4740
5380.000000	81.980	-79.8718
5450.000000	81.556	-77.8079
5520.000000	81.260	-75.3452
5600.000000	81.101	-72.4951
5700.000000	81.142	-69.7534
5800.000000	81.300	-68.7602
5900.000000	81.357	-69.4389
6000.000000	81.189	-70.7042
6080.000000	80.902	-71.3930
6150.000000	80.584	-71.4602
6220.000000	80.245	-70.9750
6300.000000	79.867	-69.8082
6400.000000	79.455	-67.5900
6500.000000	79.139	-64.7861
6600.000000	78.921	-61.5898
6700.000000	78.801	-58.1053
6800.000000	78.800	-54.4941
6900.000000	78.931	-50.8882
7000.000000	79.190	-47.3973
7100.000000	79.576	-44.1875
7200.000000	80.082	-41.3941
7300.000000	80.697	-39.1753
7400.000000	81.412	-37.6886
7500.000000	82.232	-37.1818
7620.000000	83.323	-38.3755
7750.000000	84.493	-42.6509
7880.000000	85.353	-50.4420
8000.000000	85.646	-60.0712
8120.000000	85.350	-70.1345
8250.000000	84.443	-78.9920
8380.000000	83.176	-84.3566
8500.000000	81.926	-86.3617
8620.000000	80.743	-86.2448
8750.000000	79.604	-84.5356
8850.000000	78.847	-82.5112
9000.000000	77.911	-78.7742
9120.000000	77.316	-75.5014
9250.000000	76.792	-71.8912
9380.000000	76.377	-68.3431
9500.000000	76.078	-65.2319
9620.000000	75.844	-62.3961
9750.000000	75.645	-59.7014
9880.000000	75.478	-57.4306
10000.000000	75.323	-55.7267
10150.000000	75.086	-54.0732
10300.000000	74.739	-52.6187
10440.000000	74.304	-50.9786
10600.000000	73.717	-48.2399
10750.000000	73.141	-44.5471
10900.000000	72.636	-39.6958
11060.000000	72.254	-33.6126
11200.000000	72.111	-28.0411
11380.000000	72.189	-21.2187
11500.000000	72.371	-17.2590
11720.000000	72.822	-11.9180
11800.000000	72.977	-10.6187
12060.000000	73.284	-7.8651
12200.000000	73.277	-6.6982
12410.000000	73.057	-4.4085
12500.000000	72.919	-3.0605
12650.000000	72.689	-0.2652
12800.000000	72.498	3.1814
13150.000000	72.354	12.8859
13200.000000	72.380	14.3692
13400.000000	72.622	20.2857
13600.000000	73.101	25.7808
13800.000000	73.817	30.3114
14000.000000	74.720	33.2308
14300.000000	76.150	33.0082
14500.000000	76.860	29.3923
14750.000000	77.129	22.7960
15000.000000	76.700	17.7078
15250.000000	75.971	16.7944
15500.000000	75.536	19.6546
15750.000000	75.817	23.7216
16000.000000	76.771	25.5338
16250.000000	77.936	21.9636
16500.000000	78.645	12.0953
16750.000000	78.419	-1.0379
17000.000000	77.198	-12.0508
17250.000000	75.317	-17.5699
17500.000000	73.272	-17.5891
17750.000000	71.425	-13.5355
18000.000000	69.937	-6.6426
18250.000000	68.906	2.2651
18500.000000	68.496	11.9034
18750.000000	68.667	19.9329
19000.000000	69.055	25.3388
19250.000000	69.511	29.0495
19500.000000	70.100	30.8872
19750.000000	70.676	29.8494
20000.000000	70.976	27.6525
