* Measurement data measured by REW V5.20.9
* Source: Mic in at rear panel (Pink)(Realtek(R) Audio), MICROPHONE (마스), L, volume: 0.500
* Format: 256k Log Swept Sine, 1 sweep at -12.0 dBFS with no timing reference
* Dated: 2022. 9. 24 오전 11:41:40
* REW Settings:
*  C-weighting compensation: Off
*  Target level: 75.0 dB
* Note: 
* Measurement: L
* Smoothing: 1/24 octave
* Frequency Step: 1/48 octave
* Start Frequency: 20.300 Hz
*
* Freq(Hz)	SPL(dB)	Phase(degrees)
20.299999	75.307	-158.5985
20.600000	75.311	-158.9811
20.900000	75.318	-159.6521
21.200001	75.321	-160.2629
21.400000	75.322	-160.6519
21.799999	75.317	-161.4457
22.000000	75.310	-161.8631
22.400000	75.288	-162.7090
22.700001	75.263	-163.3176
23.000000	75.238	-163.8840
23.299999	75.217	-164.4143
23.600000	75.205	-164.9316
24.000000	75.201	-165.6456
24.299999	75.205	-166.2212
24.700001	75.209	-167.0319
25.000000	75.209	-167.6410
25.400000	75.206	-168.4097
25.799999	75.206	-169.1108
26.200001	75.214	-169.7724
26.500000	75.224	-170.2720
26.900000	75.235	-170.9643
27.200001	75.237	-171.4971
27.600000	75.229	-172.1944
28.000000	75.211	-172.8343
28.500000	75.185	-173.5251
29.000000	75.163	-174.1347
29.500000	75.149	-174.7404
30.000000	75.136	-175.3962
30.400000	75.121	-175.9527
30.700001	75.105	-176.3726
31.100000	75.079	-176.9110
31.500000	75.051	-177.4103
32.000000	75.020	-177.9888
32.500000	74.997	-178.5627
33.000000	74.980	-179.1756
33.500000	74.963	-179.8217
34.000000	74.942	179.5449
34.500000	74.920	178.9571
35.000000	74.901	178.4019
35.500000	74.886	177.8416
36.000000	74.870	177.2590
36.500000	74.849	176.6707
37.000000	74.823	176.1042
37.500000	74.791	175.5738
38.200001	74.744	174.8952
38.700001	74.710	174.4538
39.500000	74.665	173.7850
40.000000	74.642	173.3511
40.599998	74.615	172.7987
41.200001	74.584	172.2469
41.799999	74.552	171.7316
42.500000	74.522	171.1571
43.099998	74.502	170.6405
43.700001	74.480	170.0950
44.400002	74.446	169.4617
45.000000	74.411	168.9531
45.500000	74.381	168.5578
46.200001	74.343	168.0203
46.799999	74.313	167.5271
47.500000	74.269	166.8974
48.200001	74.209	166.3174
48.700001	74.164	166.0044
49.400002	74.119	165.6766
50.000000	74.101	165.3703
50.799999	74.084	164.8126
51.500000	74.055	164.2731
52.200001	74.016	163.8012
53.000000	73.975	163.3433
53.799999	73.937	162.8894
54.500000	73.899	162.4817
55.200001	73.858	162.0894
56.000000	73.811	161.6411
57.000000	73.747	161.0500
58.000000	73.675	160.5297
59.000000	73.617	160.0319
60.000000	73.558	159.4758
60.799999	73.509	159.0573
61.500000	73.470	158.6896
62.200001	73.430	158.2976
63.000000	73.374	157.8819
64.000000	73.305	157.4710
65.000000	73.247	157.0684
66.000000	73.188	156.6434
67.000000	73.132	156.2405
68.000000	73.080	155.7958
69.000000	73.021	155.3301
70.000000	72.962	154.9138
71.000000	72.906	154.5003
72.000000	72.846	154.0964
73.000000	72.784	153.7227
74.000000	72.719	153.3777
75.000000	72.655	153.0923
76.199997	72.583	152.7579
77.500000	72.502	152.4328
78.800003	72.431	152.1499
80.000000	72.370	151.8685
81.199997	72.314	151.5385
82.500000	72.245	151.1170
83.800003	72.172	150.7235
85.000000	72.106	150.3600
86.199997	72.040	150.0196
87.500000	71.973	149.6940
88.500000	71.924	149.4350
90.000000	71.843	149.0624
91.199997	71.776	148.8026
92.500000	71.706	148.5153
93.800003	71.635	148.2075
95.000000	71.569	147.9237
96.199997	71.505	147.6531
97.500000	71.441	147.3884
98.800003	71.383	147.1175
100.000000	71.325	146.8485
101.500000	71.243	146.5583
103.000000	71.160	146.3044
104.400002	71.082	146.0734
106.000000	70.997	145.8124
107.500000	70.919	145.5648
109.000000	70.844	145.3617
110.599998	70.769	145.1623
112.000000	70.704	145.0046
113.800003	70.621	144.8040
115.000000	70.564	144.6581
117.199997	70.456	144.4061
118.000000	70.418	144.3218
120.599998	70.296	144.0463
122.000000	70.233	143.9144
124.099998	70.143	143.7310
125.000000	70.104	143.6563
126.500000	70.036	143.5485
128.000000	69.969	143.4436
131.500000	69.800	143.1537
132.000000	69.776	143.1175
134.000000	69.684	142.9910
136.000000	69.598	142.8730
138.000000	69.510	142.7844
140.000000	69.419	142.7259
143.000000	69.274	142.7119
145.000000	69.179	142.7698
147.500000	69.063	142.7933
150.000000	68.947	142.8965
152.500000	68.856	143.0762
155.000000	68.779	143.2855
157.500000	68.694	143.6092
160.000000	68.616	144.0065
162.500000	68.563	144.3596
165.000000	68.539	144.6430
167.500000	68.543	144.8981
170.000000	68.548	144.9789
172.500000	68.534	144.8319
175.000000	68.505	144.5294
177.500000	68.470	144.1814
180.000000	68.423	143.8820
182.500000	68.366	143.6266
185.000000	68.299	143.3792
187.500000	68.224	143.1602
190.000000	68.142	142.9958
192.500000	68.055	142.8819
195.000000	67.967	142.7888
197.500000	67.886	142.7072
200.000000	67.810	142.6389
203.000000	67.720	142.6442
206.000000	67.634	142.6708
209.000000	67.546	142.6866
212.000000	67.460	142.7599
214.000000	67.406	142.8199
218.000000	67.302	142.8677
220.000000	67.249	142.8864
224.000000	67.145	142.9904
227.000000	67.069	143.0867
230.000000	66.996	143.2205
233.000000	66.925	143.3642
236.000000	66.851	143.5004
240.000000	66.755	143.6609
243.000000	66.687	143.7574
247.000000	66.596	143.8912
250.000000	66.529	144.0157
254.000000	66.436	144.2169
258.000000	66.338	144.4492
262.000000	66.251	144.6760
265.000000	66.191	144.8624
269.000000	66.114	145.1013
272.000000	66.059	145.2710
276.000000	65.989	145.5179
280.000000	65.917	145.7812
285.000000	65.835	146.1274
290.000000	65.770	146.4445
295.000000	65.697	146.7681
300.000000	65.622	147.0631
304.000000	65.573	147.2565
307.000000	65.533	147.3908
311.000000	65.477	147.5971
315.000000	65.422	147.8245
320.000000	65.356	148.0988
325.000000	65.297	148.3896
330.000000	65.235	148.6983
335.000000	65.169	149.0007
340.000000	65.103	149.2985
345.000000	65.037	149.6162
350.000000	64.968	149.9335
355.000000	64.897	150.2787
360.000000	64.833	150.6703
365.000000	64.779	151.0338
370.000000	64.721	151.3559
375.000000	64.658	151.6901
382.000000	64.578	152.2237
387.000000	64.532	152.5936
395.000000	64.453	153.1575
400.000000	64.398	153.5089
406.000000	64.337	153.9319
412.000000	64.281	154.3430
418.000000	64.222	154.8031
425.000000	64.154	155.3349
431.000000	64.104	155.7428
437.000000	64.061	156.1508
444.000000	64.006	156.6717
450.000000	63.961	157.1240
455.000000	63.929	157.4962
462.000000	63.882	158.0075
468.000000	63.843	158.4404
475.000000	63.804	158.9469
482.000000	63.762	159.4529
487.000000	63.729	159.8301
494.000000	63.686	160.4006
500.000000	63.652	160.8956
508.000000	63.611	161.4849
515.000000	63.582	161.9589
522.000000	63.556	162.4514
530.000000	63.524	163.0310
538.000000	63.496	163.6772
545.000000	63.473	164.2555
552.000000	63.451	164.7722
560.000000	63.421	165.3259
570.000000	63.394	166.1291
580.000000	63.371	166.9279
590.000000	63.346	167.6938
600.000000	63.327	168.4904
608.000000	63.310	169.0969
615.000000	63.297	169.6105
622.000000	63.288	170.1310
630.000000	63.278	170.7276
640.000000	63.261	171.4754
650.000000	63.250	172.2119
660.000000	63.248	172.9543
670.000000	63.244	173.7390
680.000000	63.243	174.5222
690.000000	63.243	175.2982
700.000000	63.247	176.0905
710.000000	63.250	176.8586
720.000000	63.257	177.5948
730.000000	63.274	178.3293
740.000000	63.290	179.0417
750.000000	63.306	179.7346
762.000000	63.333	-179.3596
775.000000	63.376	-178.3206
788.000000	63.428	-177.4180
800.000000	63.479	-176.7766
812.000000	63.511	-176.3756
825.000000	63.460	-175.9540
838.000000	63.366	-174.7407
850.000000	63.372	-173.1651
862.000000	63.450	-171.8239
875.000000	63.549	-170.6524
885.000000	63.625	-169.8612
900.000000	63.739	-168.7593
912.000000	63.826	-167.9341
925.000000	63.921	-167.0701
938.000000	64.022	-166.2088
950.000000	64.118	-165.4997
962.000000	64.208	-164.8120
975.000000	64.314	-164.0591
988.000000	64.425	-163.3412
1000.000000	64.530	-162.7024
1015.000000	64.649	-161.9385
1030.000000	64.776	-161.2125
1044.000000	64.902	-160.5598
1060.000000	65.042	-159.8400
1075.000000	65.174	-159.2161
1090.000000	65.313	-158.6264
1106.000000	65.468	-158.0336
1120.000000	65.604	-157.5679
1138.000000	65.782	-156.9979
1150.000000	65.905	-156.6336
1172.000000	66.124	-156.0157
1180.000000	66.202	-155.8074
1206.000000	66.464	-155.1689
1220.000000	66.604	-154.8548
1241.000000	66.810	-154.3824
1250.000000	66.896	-154.1805
1265.000000	67.035	-153.8728
1280.000000	67.172	-153.6107
1315.000000	67.503	-152.9919
1320.000000	67.551	-152.9087
1340.000000	67.743	-152.5894
1360.000000	67.932	-152.2622
1380.000000	68.126	-151.9613
1400.000000	68.323	-151.7171
1430.000000	68.620	-151.3259
1450.000000	68.821	-151.0910
1475.000000	69.078	-150.8371
1500.000000	69.335	-150.6210
1525.000000	69.594	-150.4114
1550.000000	69.856	-150.2074
1575.000000	70.123	-150.0564
1600.000000	70.396	-149.9559
1625.000000	70.676	-149.8675
1650.000000	70.961	-149.8145
1675.000000	71.251	-149.8253
1700.000000	71.550	-149.8914
1725.000000	71.854	-150.0243
1750.000000	72.162	-150.2527
1775.000000	72.477	-150.5659
1800.000000	72.797	-150.9560
1825.000000	73.121	-151.4375
1850.000000	73.449	-152.0233
1875.000000	73.782	-152.7153
1900.000000	74.118	-153.5302
1925.000000	74.457	-154.4846
1950.000000	74.796	-155.5855
1975.000000	75.133	-156.8443
2000.000000	75.466	-158.2694
2030.000000	75.857	-160.2106
2060.000000	76.232	-162.4092
2090.000000	76.585	-164.8768
2120.000000	76.909	-167.6064
2140.000000	77.106	-169.5622
2180.000000	77.441	-173.7572
2200.000000	77.575	-175.9717
2240.000000	77.767	179.4413
2270.000000	77.845	175.9368
2300.000000	77.864	172.4524
2330.000000	77.826	169.0541
2360.000000	77.736	165.7989
2400.000000	77.543	161.7582
2430.000000	77.354	159.0010
2470.000000	77.059	155.7332
2500.000000	76.813	153.5909
2540.000000	76.463	151.1342
2580.000000	76.099	149.1217
2620.000000	75.731	147.5121
2650.000000	75.457	146.5442
2690.000000	75.096	145.5500
2720.000000	74.833	145.0095
2760.000000	74.492	144.5400
2800.000000	74.167	144.3384
2850.000000	73.790	144.4355
2900.000000	73.455	144.8721
2950.000000	73.163	145.5468
3000.000000	72.916	146.3547
3040.000000	72.749	147.0713
3070.000000	72.638	147.6339
3110.000000	72.509	148.4014
3150.000000	72.395	149.1826
3200.000000	72.275	150.1814
3250.000000	72.176	151.2061
3300.000000	72.093	152.2635
3350.000000	72.027	153.3764
3400.000000	71.982	154.5552
3450.000000	71.968	155.7927
3500.000000	71.988	157.0346
3550.000000	72.037	158.2469
3600.000000	72.109	159.4091
3650.000000	72.197	160.4838
3700.000000	72.298	161.4735
3750.000000	72.408	162.4012
3820.000000	72.571	163.6389
3870.000000	72.694	164.5027
3950.000000	72.904	165.8544
4000.000000	73.048	166.6629
4060.000000	73.230	167.6027
4120.000000	73.418	168.5739
4180.000000	73.624	169.6821
4250.000000	73.920	171.1953
4310.000000	74.248	172.5753
4370.000000	74.656	173.8448
4440.000000	75.240	174.8989
4500.000000	75.821	175.2247
4550.000000	76.351	174.9856
4620.000000	77.143	173.7248
4680.000000	77.843	171.6356
4750.000000	78.638	167.8285
4820.000000	79.338	162.4009
4870.000000	79.728	157.5469
4940.000000	80.050	149.6546
5000.000000	80.075	142.3392
5080.000000	79.732	132.7986
5150.000000	79.121	125.5043
5220.000000	78.301	119.6735
5300.000000	77.209	114.8951
5380.000000	76.019	111.9990
5450.000000	74.894	111.3441
5520.000000	73.784	113.5290
5600.000000	73.045	117.9778
5700.000000	72.653	120.5406
5800.000000	72.231	121.4254
5900.000000	71.615	122.2056
6000.000000	70.944	124.3621
6080.000000	70.473	126.7346
6150.000000	70.121	129.0901
6220.000000	69.822	131.6264
6300.000000	69.541	134.6783
6400.000000	69.277	138.6378
6500.000000	69.107	142.7117
6600.000000	69.029	146.8387
6700.000000	69.043	150.9437
6800.000000	69.149	154.9529
6900.000000	69.360	158.8452
7000.000000	69.682	162.6281
7100.000000	70.113	166.2452
7200.000000	70.656	169.5808
7300.000000	71.325	172.4917
7400.000000	72.134	174.7994
7500.000000	73.103	176.2117
7620.000000	74.481	176.0394
7750.000000	76.113	172.2350
7880.000000	77.495	163.0270
8000.000000	78.114	149.7423
8120.000000	77.822	135.0574
8250.000000	76.588	122.3650
8380.000000	74.826	115.0650
8500.000000	73.097	112.5007
8620.000000	71.469	112.7783
8750.000000	69.900	115.2186
8850.000000	68.844	118.0811
9000.000000	67.492	123.4135
9120.000000	66.587	128.3034
9250.000000	65.764	134.0547
9380.000000	65.093	140.1183
9500.000000	64.596	145.8935
9620.000000	64.204	151.7863
9750.000000	63.902	158.2787
9880.000000	63.724	164.8654
10000.000000	63.668	170.9753
10150.000000	63.745	178.5514
10300.000000	63.996	-173.9816
10440.000000	64.407	-167.1609
10600.000000	65.118	-159.7028
10750.000000	66.077	-153.2684
10900.000000	67.407	-147.8005
11060.000000	69.358	-144.1099
11200.000000	71.494	-144.6392
11380.000000	74.141	-155.5792
11500.000000	75.137	-171.0974
11720.000000	74.236	156.2553
11800.000000	73.121	148.2848
12060.000000	68.466	140.7991
12200.000000	66.195	143.6091
12410.000000	63.521	151.1509
12500.000000	62.598	155.0192
12650.000000	61.284	161.9790
12800.000000	60.212	169.3844
13150.000000	58.453	-172.4266
13200.000000	58.273	-169.7789
13400.000000	57.720	-159.1701
13600.000000	57.425	-148.6266
13800.000000	57.403	-138.2923
14000.000000	57.671	-128.5760
14300.000000	58.457	-117.3141
14500.000000	58.741	-112.4689
14750.000000	58.683	-101.8427
15000.000000	60.280	-85.0531
15250.000000	63.553	-74.9476
15500.000000	67.016	-77.5190
15750.000000	69.312	-94.9018
16000.000000	69.435	-119.0521
16250.000000	67.724	-133.6585
16500.000000	65.759	-136.1000
16750.000000	64.837	-133.8843
17000.000000	65.150	-133.8387
17250.000000	66.008	-142.4100
17500.000000	66.037	-162.2802
17750.000000	64.187	176.9062
18000.000000	60.608	168.1134
18250.000000	56.314	171.4067
18500.000000	52.309	-178.5565
18750.000000	49.013	-165.1393
19000.000000	46.395	-150.0117
19250.000000	44.321	-134.0834
19500.000000	42.657	-117.7308
19750.000000	41.275	-101.0363
20000.000000	40.093	-83.9074
