* Measurement data measured by REW V5.20.9
* Source: Mic in at rear panel (Pink)(Realtek(R) Audio), MICROPHONE (마스), L, volume: 0.500
* Format: 256k Log Swept Sine, 1 sweep at -12.0 dBFS with no timing reference
* Dated: 2022. 9. 24 오전 11:50:21
* REW Settings:
*  C-weighting compensation: Off
*  Target level: 75.0 dB
* Note: 
* Measurement: L_Spring
* Smoothing: 1/24 octave
* Frequency Step: 1/48 octave
* Start Frequency: 20.300 Hz
*
* Freq(Hz)	SPL(dB)	Phase(degrees)
20.299999	75.384	-160.0762
20.600000	75.383	-160.4553
20.900000	75.380	-161.1171
21.200001	75.372	-161.7094
21.400000	75.366	-162.0776
21.799999	75.353	-162.8164
22.000000	75.345	-163.2072
22.400000	75.326	-164.0264
22.700001	75.307	-164.6539
23.000000	75.286	-165.2752
23.299999	75.266	-165.8818
23.600000	75.250	-166.4770
24.000000	75.237	-167.2685
24.299999	75.232	-167.8730
24.700001	75.230	-168.6952
25.000000	75.229	-169.3125
25.400000	75.226	-170.1147
25.799999	75.223	-170.8758
26.200001	75.221	-171.5965
26.500000	75.219	-172.1179
26.900000	75.213	-172.7941
27.200001	75.205	-173.2849
27.600000	75.190	-173.9081
28.000000	75.170	-174.4859
28.500000	75.145	-175.1493
29.000000	75.122	-175.7824
29.500000	75.101	-176.4228
30.000000	75.078	-177.0869
30.400000	75.059	-177.6331
30.700001	75.044	-178.0495
31.100000	75.022	-178.6121
31.500000	74.998	-179.1775
32.000000	74.965	-179.8684
32.500000	74.932	179.4832
33.000000	74.909	178.8731
33.500000	74.898	178.2574
34.000000	74.891	177.5932
34.500000	74.877	176.8984
35.000000	74.850	176.2422
35.500000	74.820	175.6799
36.000000	74.794	175.1907
36.500000	74.776	174.7092
37.000000	74.758	174.1967
37.500000	74.732	173.6734
38.200001	74.688	172.9780
38.700001	74.656	172.4901
39.500000	74.602	171.6630
40.000000	74.561	171.1508
40.599998	74.513	170.5811
41.200001	74.472	170.0275
41.799999	74.435	169.4550
42.500000	74.390	168.8097
43.099998	74.357	168.3182
43.700001	74.333	167.8448
44.400002	74.311	167.2613
45.000000	74.289	166.7365
45.500000	74.266	166.2888
46.200001	74.223	165.6612
46.799999	74.174	165.1725
47.500000	74.117	164.7040
48.200001	74.072	164.2760
48.700001	74.046	163.9453
49.400002	74.010	163.4352
50.000000	73.978	162.9544
50.799999	73.923	162.2676
51.500000	73.858	161.7465
52.200001	73.796	161.3955
53.000000	73.754	161.0581
53.799999	73.724	160.5834
54.500000	73.686	160.0901
55.200001	73.634	159.6204
56.000000	73.569	159.1464
57.000000	73.490	158.6329
58.000000	73.424	158.1188
59.000000	73.358	157.5174
60.000000	73.277	156.9520
60.799999	73.218	156.5703
61.500000	73.174	156.2271
62.200001	73.129	155.8531
63.000000	73.068	155.4404
64.000000	72.990	155.0189
65.000000	72.921	154.6330
66.000000	72.854	154.1937
67.000000	72.780	153.7615
68.000000	72.711	153.3622
69.000000	72.647	152.9110
70.000000	72.575	152.4349
71.000000	72.498	152.0114
72.000000	72.423	151.6129
73.000000	72.343	151.2559
74.000000	72.267	150.9641
75.000000	72.198	150.6705
76.199997	72.113	150.3166
77.500000	72.022	149.9842
78.800003	71.935	149.6606
80.000000	71.854	149.3255
81.199997	71.760	149.0048
82.500000	71.662	148.7465
83.800003	71.577	148.4214
85.000000	71.486	148.0652
86.199997	71.389	147.8480
87.500000	71.302	147.7136
88.500000	71.238	147.6474
90.000000	71.158	147.6810
91.199997	71.110	147.6468
92.500000	71.047	147.5034
93.800003	70.973	147.3451
95.000000	70.902	147.1209
96.199997	70.817	146.8605
97.500000	70.726	146.6367
98.800003	70.640	146.3674
100.000000	70.546	146.1212
101.500000	70.413	146.0260
103.000000	70.296	146.1068
104.400002	70.196	146.1828
106.000000	70.079	146.3372
107.500000	69.982	146.6409
109.000000	69.910	147.0019
110.599998	69.848	147.4265
112.000000	69.814	147.8015
113.800003	69.801	148.1350
115.000000	69.806	148.2701
117.199997	69.861	148.4189
118.000000	69.895	148.3907
120.599998	69.929	147.8877
122.000000	69.883	147.7967
124.099998	69.823	147.7240
125.000000	69.799	147.6133
126.500000	69.760	147.3758
128.000000	69.732	147.1390
131.500000	69.684	146.6059
132.000000	69.673	146.5448
134.000000	69.619	146.3513
136.000000	69.564	146.1745
138.000000	69.518	145.9058
140.000000	69.469	145.5887
143.000000	69.393	145.1645
145.000000	69.342	144.9043
147.500000	69.280	144.5194
150.000000	69.197	144.0987
152.500000	69.102	143.8065
155.000000	69.006	143.5809
157.500000	68.914	143.3587
160.000000	68.830	143.0831
162.500000	68.742	142.8449
165.000000	68.652	142.6960
167.500000	68.561	142.5931
170.000000	68.474	142.4894
172.500000	68.389	142.3717
175.000000	68.303	142.2515
177.500000	68.216	142.1410
180.000000	68.128	142.0643
182.500000	68.036	142.0602
185.000000	67.945	142.0859
187.500000	67.855	142.1041
190.000000	67.771	142.1355
192.500000	67.692	142.1824
195.000000	67.615	142.2671
197.500000	67.543	142.3845
200.000000	67.474	142.4950
203.000000	67.394	142.6276
206.000000	67.322	142.7585
209.000000	67.255	142.9008
212.000000	67.191	143.0000
214.000000	67.149	143.0112
218.000000	67.067	143.0481
220.000000	67.025	143.1017
224.000000	66.940	143.1772
227.000000	66.876	143.1808
230.000000	66.813	143.1995
233.000000	66.750	143.2244
236.000000	66.683	143.2443
240.000000	66.590	143.3298
243.000000	66.519	143.4235
247.000000	66.418	143.5338
250.000000	66.342	143.6340
254.000000	66.241	143.8393
258.000000	66.153	144.1537
262.000000	66.080	144.5047
265.000000	66.032	144.7109
269.000000	65.974	144.8766
272.000000	65.930	144.9885
276.000000	65.870	145.1461
280.000000	65.810	145.2556
285.000000	65.738	145.3484
290.000000	65.659	145.5356
295.000000	65.569	145.8011
300.000000	65.477	146.0023
304.000000	65.404	146.1363
307.000000	65.351	146.2619
311.000000	65.286	146.4587
315.000000	65.224	146.6930
320.000000	65.153	147.0033
325.000000	65.086	147.2588
330.000000	65.018	147.5484
335.000000	64.949	147.9139
340.000000	64.885	148.2491
345.000000	64.818	148.5508
350.000000	64.748	148.8453
355.000000	64.680	149.1281
360.000000	64.616	149.4703
365.000000	64.552	149.8250
370.000000	64.493	150.1688
375.000000	64.441	150.4933
382.000000	64.358	150.9172
387.000000	64.297	151.2628
395.000000	64.216	151.8342
400.000000	64.164	152.2028
406.000000	64.103	152.6233
412.000000	64.044	153.0441
418.000000	63.986	153.4967
425.000000	63.921	154.0186
431.000000	63.868	154.4313
437.000000	63.816	154.8383
444.000000	63.756	155.3043
450.000000	63.711	155.7270
455.000000	63.678	156.0852
462.000000	63.633	156.5730
468.000000	63.587	157.0088
475.000000	63.532	157.5203
482.000000	63.486	158.0245
487.000000	63.458	158.3826
494.000000	63.420	158.9037
500.000000	63.386	159.3505
508.000000	63.345	159.9485
515.000000	63.311	160.4498
522.000000	63.277	160.9517
530.000000	63.242	161.5380
538.000000	63.209	162.1448
545.000000	63.180	162.6230
552.000000	63.153	163.0959
560.000000	63.128	163.6559
570.000000	63.091	164.3647
580.000000	63.059	165.0811
590.000000	63.030	165.8488
600.000000	63.004	166.6057
608.000000	62.988	167.2297
615.000000	62.978	167.7539
622.000000	62.965	168.2764
630.000000	62.942	168.8684
640.000000	62.925	169.5999
650.000000	62.918	170.3431
660.000000	62.912	171.0784
670.000000	62.901	171.7777
680.000000	62.893	172.4844
690.000000	62.888	173.2031
700.000000	62.889	173.9517
710.000000	62.895	174.7156
720.000000	62.900	175.4441
730.000000	62.906	176.1562
740.000000	62.913	176.8505
750.000000	62.924	177.5479
762.000000	62.949	178.4554
775.000000	62.994	179.4245
788.000000	63.044	-179.8037
800.000000	63.086	-179.3297
812.000000	63.085	-179.0490
825.000000	62.989	-178.4267
838.000000	62.908	-176.9000
850.000000	62.938	-175.3608
862.000000	63.021	-174.2187
875.000000	63.115	-173.1917
885.000000	63.182	-172.4594
900.000000	63.276	-171.4208
912.000000	63.353	-170.6247
925.000000	63.438	-169.7703
938.000000	63.525	-168.9374
950.000000	63.606	-168.2080
962.000000	63.690	-167.5131
975.000000	63.780	-166.8069
988.000000	63.864	-166.1129
1000.000000	63.947	-165.4770
1015.000000	64.071	-164.6978
1030.000000	64.197	-163.9960
1044.000000	64.306	-163.4005
1060.000000	64.425	-162.7328
1075.000000	64.545	-162.0965
1090.000000	64.678	-161.4964
1106.000000	64.826	-160.9270
1120.000000	64.954	-160.4679
1138.000000	65.115	-159.9162
1150.000000	65.221	-159.5734
1172.000000	65.416	-158.9904
1180.000000	65.487	-158.7994
1206.000000	65.710	-158.2025
1220.000000	65.831	-157.8875
1241.000000	66.014	-157.4236
1250.000000	66.091	-157.2206
1265.000000	66.214	-156.8844
1280.000000	66.337	-156.5716
1315.000000	66.629	-155.8930
1320.000000	66.671	-155.7965
1340.000000	66.841	-155.4169
1360.000000	67.009	-155.0468
1380.000000	67.180	-154.7281
1400.000000	67.355	-154.4576
1430.000000	67.616	-154.0611
1450.000000	67.788	-153.8154
1475.000000	68.004	-153.4950
1500.000000	68.221	-153.1694
1525.000000	68.438	-152.8715
1550.000000	68.655	-152.6034
1575.000000	68.879	-152.3240
1600.000000	69.110	-152.0692
1625.000000	69.348	-151.8412
1650.000000	69.590	-151.6546
1675.000000	69.834	-151.5111
1700.000000	70.082	-151.4143
1725.000000	70.333	-151.3515
1750.000000	70.586	-151.3199
1775.000000	70.841	-151.3466
1800.000000	71.101	-151.4206
1825.000000	71.365	-151.5276
1850.000000	71.634	-151.6988
1875.000000	71.908	-151.9429
1900.000000	72.184	-152.2505
1925.000000	72.459	-152.6285
1950.000000	72.734	-153.0634
1975.000000	73.012	-153.5462
2000.000000	73.295	-154.0901
2030.000000	73.645	-154.8426
2060.000000	74.004	-155.7542
2090.000000	74.364	-156.9046
2120.000000	74.710	-158.3103
2140.000000	74.925	-159.3465
2180.000000	75.318	-161.4675
2200.000000	75.504	-162.4914
2240.000000	75.895	-164.4391
2270.000000	76.232	-166.0161
2300.000000	76.600	-168.0078
2330.000000	76.957	-170.5811
2360.000000	77.256	-173.6577
2400.000000	77.535	-178.1766
2430.000000	77.665	178.3401
2470.000000	77.747	173.6844
2500.000000	77.740	170.2285
2540.000000	77.637	165.7953
2580.000000	77.441	161.7276
2620.000000	77.172	158.1210
2650.000000	76.935	155.7273
2690.000000	76.583	152.9530
2720.000000	76.298	151.1954
2760.000000	75.900	149.3004
2800.000000	75.492	147.9335
2850.000000	74.994	146.9619
2900.000000	74.548	146.7260
2950.000000	74.183	146.9495
3000.000000	73.897	147.2606
3040.000000	73.696	147.4722
3070.000000	73.553	147.6548
3110.000000	73.372	147.9939
3150.000000	73.209	148.4373
3200.000000	73.037	149.0509
3250.000000	72.894	149.6683
3300.000000	72.770	150.2698
3350.000000	72.657	150.8548
3400.000000	72.548	151.4641
3450.000000	72.448	152.1581
3500.000000	72.366	152.9525
3550.000000	72.299	153.8255
3600.000000	72.247	154.7520
3650.000000	72.209	155.7193
3700.000000	72.180	156.7321
3750.000000	72.163	157.8132
3820.000000	72.163	159.4592
3870.000000	72.185	160.7318
3950.000000	72.265	162.8582
4000.000000	72.346	164.1936
4060.000000	72.473	165.7712
4120.000000	72.631	167.3111
4180.000000	72.819	168.8050
4250.000000	73.075	170.4949
4310.000000	73.325	171.8714
4370.000000	73.601	173.1693
4440.000000	73.963	174.5572
4500.000000	74.313	175.5885
4550.000000	74.635	176.3128
4620.000000	75.133	177.0874
4680.000000	75.607	177.4751
4750.000000	76.219	177.5092
4820.000000	76.888	176.9500
4870.000000	77.397	176.0988
4940.000000	78.143	174.1211
5000.000000	78.794	171.5231
5080.000000	79.625	166.4633
5150.000000	80.237	160.3463
5220.000000	80.641	152.6811
5300.000000	80.723	142.5056
5380.000000	80.273	131.9863
5450.000000	79.346	124.5691
5520.000000	78.025	122.2952
5600.000000	77.030	125.2090
5700.000000	76.781	125.3187
5800.000000	76.510	122.1379
5900.000000	75.804	118.3492
6000.000000	74.856	117.0765
6080.000000	74.141	117.4870
6150.000000	73.583	118.4868
6220.000000	73.094	119.8953
6300.000000	72.612	121.8529
6400.000000	72.122	124.6833
6500.000000	71.750	127.7966
6600.000000	71.491	131.0425
6700.000000	71.338	134.3162
6800.000000	71.287	137.5304
6900.000000	71.343	140.6574
7000.000000	71.513	143.6873
7100.000000	71.789	146.5671
7200.000000	72.176	149.2081
7300.000000	72.692	151.4792
7400.000000	73.352	153.1661
7500.000000	74.172	153.9371
7620.000000	75.372	152.9247
7750.000000	76.796	148.0380
7880.000000	77.923	137.6265
8000.000000	78.266	123.4951
8120.000000	77.683	108.4995
8250.000000	76.130	96.0553
8380.000000	74.080	89.3901
8500.000000	72.136	87.4322
8620.000000	70.338	88.1459
8750.000000	68.607	90.7956
8850.000000	67.421	93.6881
9000.000000	65.856	98.9441
9120.000000	64.767	103.7203
9250.000000	63.729	109.3248
9380.000000	62.817	115.2345
9500.000000	62.074	120.8841
9620.000000	61.421	126.6691
9750.000000	60.804	133.0486
9880.000000	60.269	139.5236
10000.000000	59.848	145.6096
10150.000000	59.421	153.3283
10300.000000	59.090	161.0691
10440.000000	58.862	168.3260
10600.000000	58.703	176.6220
10750.000000	58.651	-175.6019
10900.000000	58.684	-167.8067
11060.000000	58.820	-159.4965
11200.000000	59.030	-152.2897
11380.000000	59.443	-143.1452
11500.000000	59.811	-137.1818
11720.000000	60.711	-126.5914
11800.000000	61.120	-122.8729
12060.000000	62.816	-111.5769
12200.000000	64.017	-106.2928
12410.000000	66.337	-100.4353
12500.000000	67.541	-99.2873
12650.000000	69.711	-100.6705
12800.000000	71.706	-108.2973
13150.000000	72.829	-147.4268
13200.000000	72.479	-152.5790
13400.000000	70.269	-165.3260
13600.000000	67.721	-167.2829
13800.000000	65.673	-163.5554
14000.000000	64.299	-157.5109
14300.000000	63.238	-147.7613
14500.000000	62.894	-142.0351
14750.000000	62.670	-133.6873
15000.000000	63.515	-124.3693
15250.000000	65.356	-121.9823
15500.000000	66.946	-131.2515
15750.000000	67.171	-149.3681
16000.000000	65.649	-165.4510
16250.000000	62.976	-171.5067
16500.000000	60.171	-169.0056
16750.000000	57.855	-162.2825
17000.000000	56.090	-153.8486
17250.000000	54.739	-144.6967
17500.000000	53.708	-134.9947
17750.000000	52.986	-124.7224
18000.000000	52.621	-114.3371
18250.000000	52.684	-104.7247
18500.000000	53.177	-97.1966
18750.000000	53.930	-93.5986
19000.000000	54.571	-95.6045
19250.000000	54.586	-103.0406
19500.000000	53.590	-112.1405
19750.000000	51.562	-117.5040
20000.000000	48.755	-115.9577
