* Measurement data measured by REW V5.20.7
* Source: Mic in at rear panel (Pink)(Realtek(R) Audio), MICROPHONE (마스), L, volume: 1.000
* Format: 128k Log Swept Sine, 1 sweep at -12.0 dBFS with no timing reference
* Dated: 2022. 5. 13 오후 10:32:24
* REW Settings:
*  C-weighting compensation: Off
*  Target level: 75.0 dB
* Note: 
* Measurement: R
* Smoothing: 1/24 octave
* Frequency Step: 1/48 octave
* Start Frequency: 20.300 Hz
*
* Freq(Hz)	SPL(dB)	Phase(degrees)
20.299999	80.538	49.3107
20.600000	80.551	48.9819
20.900000	80.586	48.4542
21.200001	80.638	48.0909
21.400000	80.685	47.8816
21.799999	80.802	47.3700
22.000000	80.865	47.0090
22.400000	80.980	46.0686
22.700001	81.049	45.2498
23.000000	81.101	44.4304
23.299999	81.139	43.6812
23.600000	81.169	43.0266
24.000000	81.211	42.2870
24.299999	81.251	41.7886
24.700001	81.315	41.1431
25.000000	81.366	40.6528
25.400000	81.434	39.9866
25.799999	81.505	39.3062
26.200001	81.576	38.6032
26.500000	81.626	38.0587
26.900000	81.681	37.3214
27.200001	81.713	36.7789
27.600000	81.746	36.0926
28.000000	81.775	35.4501
28.500000	81.810	34.6599
29.000000	81.844	33.8170
29.500000	81.874	32.9181
30.000000	81.890	32.0283
30.400000	81.898	31.3647
30.700001	81.908	30.9007
31.100000	81.932	30.3159
31.500000	81.966	29.7520
32.000000	82.019	29.0477
32.500000	82.083	28.3142
33.000000	82.150	27.5349
33.500000	82.207	26.7318
34.000000	82.249	25.9680
34.500000	82.285	25.2930
35.000000	82.325	24.6859
35.500000	82.369	24.0722
36.000000	82.404	23.4155
36.500000	82.422	22.7625
37.000000	82.424	22.1884
37.500000	82.422	21.7034
38.200001	82.437	21.0548
38.700001	82.461	20.5344
39.500000	82.498	19.5406
40.000000	82.504	18.8117
40.599998	82.485	17.9268
41.200001	82.449	17.2379
41.799999	82.446	16.7234
42.500000	82.511	15.8497
43.099998	82.552	14.6345
43.700001	82.519	13.4531
44.400002	82.442	12.7905
45.000000	82.434	12.7218
45.500000	82.476	12.6137
46.200001	82.545	12.1551
46.799999	82.576	11.6727
47.500000	82.598	11.2214
48.200001	82.624	10.8215
48.700001	82.641	10.5280
49.400002	82.656	10.0976
50.000000	82.666	9.6510
50.799999	82.664	8.8609
51.500000	82.635	8.0846
52.200001	82.594	7.3905
53.000000	82.569	6.7176
53.799999	82.574	6.0116
54.500000	82.577	5.3195
55.200001	82.566	4.6808
56.000000	82.552	4.1271
57.000000	82.553	3.5374
58.000000	82.543	2.9015
59.000000	82.520	2.2708
60.000000	82.499	1.5571
60.799999	82.476	0.9353
61.500000	82.456	0.4228
62.200001	82.440	-0.0473
63.000000	82.432	-0.5731
64.000000	82.431	-1.2663
65.000000	82.429	-1.9163
66.000000	82.435	-2.4619
67.000000	82.442	-3.0456
68.000000	82.423	-3.6551
69.000000	82.379	-4.2127
70.000000	82.318	-4.7617
71.000000	82.255	-5.2477
72.000000	82.217	-5.7172
73.000000	82.194	-6.3373
74.000000	82.160	-6.9988
75.000000	82.129	-7.4637
76.199997	82.134	-7.8843
77.500000	82.146	-8.4992
78.800003	82.123	-9.1202
80.000000	82.080	-9.6788
81.199997	82.013	-10.2385
82.500000	81.942	-10.7531
83.800003	81.917	-11.2804
85.000000	81.912	-11.8450
86.199997	81.900	-12.3638
87.500000	81.875	-12.8472
88.500000	81.845	-13.1953
90.000000	81.785	-13.7810
91.199997	81.722	-14.3038
92.500000	81.664	-14.8103
93.800003	81.633	-15.2744
95.000000	81.615	-15.6005
96.199997	81.596	-15.8078
97.500000	81.560	-16.0091
98.800003	81.496	-16.3061
100.000000	81.429	-16.7091
101.500000	81.364	-17.4173
103.000000	81.325	-18.1110
104.400002	81.307	-18.5579
106.000000	81.250	-18.8935
107.500000	81.144	-19.2511
109.000000	81.044	-19.8778
110.599998	81.042	-21.0297
112.000000	81.101	-21.9936
113.800003	81.179	-21.8931
115.000000	81.143	-20.9983
117.199997	80.594	-17.7823
118.000000	80.276	-15.4609
120.599998	80.369	-9.3607
122.000000	80.603	-14.5211
124.099998	80.551	-22.1381
125.000000	80.589	-23.6398
126.500000	80.688	-24.4724
128.000000	80.707	-24.2619
131.500000	80.429	-24.6405
132.000000	80.384	-24.8836
134.000000	80.287	-25.7108
136.000000	80.281	-25.9815
138.000000	80.244	-25.9613
140.000000	80.149	-26.1656
143.000000	80.024	-26.9080
145.000000	80.002	-27.2951
147.500000	79.932	-27.7538
150.000000	79.800	-28.0767
152.500000	79.701	-28.4198
155.000000	79.643	-28.7448
157.500000	79.585	-28.9761
160.000000	79.503	-29.2462
162.500000	79.387	-29.5097
165.000000	79.314	-29.6716
167.500000	79.292	-29.9913
170.000000	79.245	-30.2031
172.500000	79.169	-30.2528
175.000000	79.100	-30.4586
177.500000	79.017	-30.7661
180.000000	78.922	-31.0296
182.500000	78.792	-31.3369
185.000000	78.655	-31.5963
187.500000	78.540	-31.8406
190.000000	78.435	-31.9919
192.500000	78.339	-32.0470
195.000000	78.249	-32.0975
197.500000	78.154	-32.1696
200.000000	78.052	-32.2579
203.000000	77.927	-32.3125
206.000000	77.782	-32.1693
209.000000	77.602	-31.8883
212.000000	77.407	-31.5214
214.000000	77.328	-31.0580
218.000000	77.302	-29.8100
220.000000	77.304	-29.0717
224.000000	77.344	-27.7999
227.000000	77.430	-27.1894
230.000000	77.522	-27.0308
233.000000	77.597	-27.3373
236.000000	77.681	-27.9126
240.000000	77.746	-28.7417
243.000000	77.718	-29.2742
247.000000	77.671	-29.9296
250.000000	77.628	-30.3803
254.000000	77.528	-30.8253
258.000000	77.418	-30.9800
262.000000	77.301	-31.1351
265.000000	77.237	-31.4067
269.000000	77.182	-31.6468
272.000000	77.122	-31.6211
276.000000	77.017	-31.6446
280.000000	76.924	-31.8220
285.000000	76.836	-31.9088
290.000000	76.740	-31.7466
295.000000	76.643	-31.6862
300.000000	76.560	-31.7817
304.000000	76.498	-31.7877
307.000000	76.448	-31.7211
311.000000	76.371	-31.6749
315.000000	76.294	-31.6970
320.000000	76.216	-31.6651
325.000000	76.147	-31.5486
330.000000	76.045	-31.3581
335.000000	75.957	-31.2065
340.000000	75.891	-31.0763
345.000000	75.832	-31.0468
350.000000	75.769	-30.9068
355.000000	75.695	-30.6206
360.000000	75.616	-30.3306
365.000000	75.539	-30.1491
370.000000	75.475	-29.9748
375.000000	75.415	-29.7106
382.000000	75.314	-29.5498
387.000000	75.246	-29.4617
395.000000	75.145	-29.0916
400.000000	75.080	-28.8472
406.000000	74.982	-28.5195
412.000000	74.911	-28.3563
418.000000	74.859	-28.2063
425.000000	74.796	-27.8291
431.000000	74.745	-27.5341
437.000000	74.695	-27.2476
444.000000	74.614	-26.7794
450.000000	74.533	-26.3842
455.000000	74.487	-26.1764
462.000000	74.444	-25.8404
468.000000	74.407	-25.5213
475.000000	74.344	-25.1892
482.000000	74.281	-24.7708
487.000000	74.242	-24.5153
494.000000	74.181	-24.1820
500.000000	74.134	-23.8441
508.000000	74.094	-23.3763
515.000000	74.066	-22.9729
522.000000	74.024	-22.5298
530.000000	73.964	-22.1230
538.000000	73.917	-21.6483
545.000000	73.860	-21.2003
552.000000	73.793	-20.8037
560.000000	73.738	-20.3024
570.000000	73.716	-19.5860
580.000000	73.674	-18.9747
590.000000	73.636	-18.3538
600.000000	73.588	-17.6596
608.000000	73.548	-17.0918
615.000000	73.514	-16.7097
622.000000	73.476	-16.3208
630.000000	73.438	-15.7278
640.000000	73.411	-14.8954
650.000000	73.387	-14.2839
660.000000	73.343	-13.8033
670.000000	73.306	-13.1725
680.000000	73.301	-12.4319
690.000000	73.303	-11.6772
700.000000	73.282	-10.9807
710.000000	73.255	-10.2962
720.000000	73.243	-9.6588
730.000000	73.236	-8.9637
740.000000	73.231	-8.2394
750.000000	73.237	-7.5166
762.000000	73.256	-6.7310
775.000000	73.271	-5.8789
788.000000	73.286	-5.0291
800.000000	73.317	-4.2605
812.000000	73.350	-3.3819
825.000000	73.374	-2.4898
838.000000	73.389	-1.5909
850.000000	73.415	-0.7784
862.000000	73.457	-0.0603
875.000000	73.495	0.7265
885.000000	73.524	1.3119
900.000000	73.584	2.2371
912.000000	73.636	2.9988
925.000000	73.701	3.6992
938.000000	73.777	4.3959
950.000000	73.844	5.1071
962.000000	73.902	5.8407
975.000000	73.969	6.6472
988.000000	74.015	7.4130
1000.000000	74.043	7.9802
1015.000000	74.165	8.5152
1030.000000	74.297	9.0894
1044.000000	74.392	9.6662
1060.000000	74.503	10.3559
1075.000000	74.617	10.8997
1090.000000	74.738	11.4063
1106.000000	74.869	11.9488
1120.000000	74.969	12.3519
1138.000000	75.089	12.8614
1150.000000	75.177	13.2477
1172.000000	75.348	13.8431
1180.000000	75.407	14.0249
1206.000000	75.575	14.5339
1220.000000	75.652	14.6832
1241.000000	75.752	14.9557
1250.000000	75.795	15.1355
1265.000000	75.884	15.4239
1280.000000	76.002	15.6710
1315.000000	76.363	16.1983
1320.000000	76.419	16.2603
1340.000000	76.635	16.5416
1360.000000	76.810	16.8059
1380.000000	76.953	17.0293
1400.000000	77.077	17.2088
1430.000000	77.238	17.6542
1450.000000	77.354	17.9117
1475.000000	77.508	18.1991
1500.000000	77.660	18.5313
1525.000000	77.798	18.8146
1550.000000	77.930	19.0739
1575.000000	78.085	19.4030
1600.000000	78.230	19.7194
1625.000000	78.379	19.9998
1650.000000	78.533	20.2680
1675.000000	78.687	20.5740
1700.000000	78.847	20.8785
1725.000000	79.010	21.1663
1750.000000	79.173	21.3977
1775.000000	79.343	21.6317
1800.000000	79.515	21.9037
1825.000000	79.681	22.1216
1850.000000	79.844	22.3198
1875.000000	80.010	22.4845
1900.000000	80.182	22.6391
1925.000000	80.351	22.8483
1950.000000	80.527	23.0273
1975.000000	80.708	23.1162
2000.000000	80.887	23.1955
2030.000000	81.110	23.3089
2060.000000	81.338	23.3445
2090.000000	81.553	23.3710
2120.000000	81.768	23.3772
2140.000000	81.915	23.3219
2180.000000	82.203	23.1065
2200.000000	82.348	22.9983
2240.000000	82.642	22.7376
2270.000000	82.853	22.4787
2300.000000	83.060	22.1647
2330.000000	83.268	21.7735
2360.000000	83.471	21.3312
2400.000000	83.735	20.6715
2430.000000	83.929	20.1122
2470.000000	84.171	19.3411
2500.000000	84.345	18.7428
2540.000000	84.565	17.9178
2580.000000	84.761	17.1940
2620.000000	84.965	16.5862
2650.000000	85.139	16.1216
2690.000000	85.394	15.3614
2720.000000	85.596	14.5820
2760.000000	85.854	13.2420
2800.000000	86.064	11.6989
2850.000000	86.276	9.6459
2900.000000	86.441	7.6154
2950.000000	86.563	5.6474
3000.000000	86.670	3.7217
3040.000000	86.729	2.1456
3070.000000	86.759	0.9522
3110.000000	86.790	-0.6243
3150.000000	86.805	-2.2082
3200.000000	86.783	-4.1870
3250.000000	86.726	-6.0718
3300.000000	86.625	-7.8619
3350.000000	86.488	-9.5801
3400.000000	86.310	-11.0750
3450.000000	86.071	-12.1799
3500.000000	85.813	-12.6901
3550.000000	85.602	-12.6148
3600.000000	85.459	-12.3460
3650.000000	85.374	-12.2036
3700.000000	85.316	-12.2340
3750.000000	85.245	-12.4295
3820.000000	85.113	-12.8213
3870.000000	85.004	-13.0571
3950.000000	84.809	-13.3580
4000.000000	84.682	-13.4027
4060.000000	84.518	-13.3427
4120.000000	84.338	-13.1490
4180.000000	84.149	-12.7345
4250.000000	83.921	-12.1100
4310.000000	83.733	-11.4176
4370.000000	83.565	-10.5708
4440.000000	83.397	-9.5768
4500.000000	83.285	-8.6666
4550.000000	83.213	-7.8382
4620.000000	83.138	-6.6992
4680.000000	83.096	-5.7194
4750.000000	83.058	-4.5202
4820.000000	83.023	-3.3771
4870.000000	83.009	-2.5900
4940.000000	83.004	-1.5111
5000.000000	83.005	-0.6779
5080.000000	83.012	0.3423
5150.000000	83.021	1.1728
5220.000000	83.022	1.8761
5300.000000	83.016	2.5484
5380.000000	83.000	3.1457
5450.000000	82.969	3.5449
5520.000000	82.926	3.9067
5600.000000	82.857	4.3665
5700.000000	82.730	4.8946
5800.000000	82.563	5.5201
5900.000000	82.361	6.3362
6000.000000	82.145	7.3778
6080.000000	81.968	8.4359
6150.000000	81.813	9.4922
6220.000000	81.658	10.7050
6300.000000	81.474	12.3453
6400.000000	81.246	14.7294
6500.000000	81.040	17.4181
6600.000000	80.853	20.4735
6700.000000	80.690	23.8402
6800.000000	80.571	27.5397
6900.000000	80.523	31.6391
7000.000000	80.554	36.0041
7100.000000	80.677	40.5238
7200.000000	80.927	45.1052
7300.000000	81.329	49.4437
7400.000000	81.866	53.3126
7500.000000	82.511	56.4490
7620.000000	83.397	58.6659
7750.000000	84.349	58.5428
7880.000000	85.058	55.3990
8000.000000	85.303	50.1549
8120.000000	85.045	44.0929
8250.000000	84.243	38.5759
8380.000000	83.069	35.5617
8500.000000	81.834	35.3682
8620.000000	80.600	37.3072
8750.000000	79.350	41.2971
8850.000000	78.482	45.3589
9000.000000	77.385	52.4794
9120.000000	76.671	58.7768
9250.000000	76.036	65.9818
9380.000000	75.545	73.3125
9500.000000	75.187	80.0660
9620.000000	74.901	86.7886
9750.000000	74.695	93.9435
9880.000000	74.584	100.8308
10000.000000	74.542	106.9041
10150.000000	74.565	114.0157
10300.000000	74.667	120.5363
10440.000000	74.817	126.0334
10600.000000	74.988	131.4309
10750.000000	75.107	135.7831
10900.000000	75.175	139.5936
11060.000000	75.179	143.2094
11200.000000	75.098	146.1810
11380.000000	74.862	150.0433
11500.000000	74.630	152.8604
11720.000000	74.075	158.8105
11800.000000	73.845	161.2923
12060.000000	73.063	170.4988
12200.000000	72.645	176.2047
12410.000000	72.081	-174.1522
12500.000000	71.871	-169.7183
12650.000000	71.562	-161.9958
12800.000000	71.309	-153.8333
13150.000000	70.996	-133.4973
13200.000000	70.973	-130.4973
13400.000000	70.920	-118.4115
13600.000000	70.960	-106.2199
13800.000000	71.131	-93.9077
14000.000000	71.487	-81.5894
14300.000000	72.470	-63.4854
14500.000000	73.433	-52.0197
14750.000000	75.060	-39.0653
15000.000000	77.218	-29.0236
15250.000000	79.782	-25.0894
15500.000000	81.951	-32.3327
15750.000000	82.518	-50.1640
16000.000000	81.106	-65.7255
16250.000000	78.576	-70.0894
16500.000000	76.014	-65.9407
16750.000000	73.917	-57.8050
17000.000000	72.259	-47.9394
17250.000000	70.840	-37.0696
17500.000000	69.528	-24.9307
17750.000000	68.289	-10.7180
18000.000000	67.273	5.7653
18250.000000	66.704	23.4802
18500.000000	66.592	40.9308
18750.000000	66.776	56.9424
19000.000000	67.113	71.2156
19250.000000	67.435	83.8670
19500.000000	67.540	95.1884
19750.000000	67.362	104.9941
20000.000000	67.130	110.7047
