* Measurement data measured by REW V5.20.5
* Source: Input device not selected, no input selected, L, volume: no control
* Format: 128k Log Swept Sine, 1 sweep at -12.0 dBFS with no timing reference
* Dated: Aug 5, 2022 2:22:53 PM
* REW Settings:
*  C-weighting compensation: Off
*  Target level: 75.0 dB
* Note: 
* Measurement: ER4XR R Clear
* Smoothing: 1/12 octave
* Frequency Step: 1/48 octave
* Start Frequency: 20.300 Hz
*
* Freq(Hz)	SPL(dB)	Phase(degrees)
20.299999	88.945	-143.1330
20.600000	88.951	-143.2432
20.900000	88.969	-143.5073
21.200001	88.990	-143.8077
21.400000	89.006	-144.0181
21.799999	89.039	-144.4689
22.000000	89.054	-144.7126
22.400000	89.081	-145.2351
22.700001	89.098	-145.6481
23.000000	89.112	-146.0686
23.299999	89.126	-146.4903
23.600000	89.140	-146.9118
24.000000	89.162	-147.4768
24.299999	89.181	-147.9043
24.700001	89.206	-148.4743
25.000000	89.225	-148.8924
25.400000	89.250	-149.4223
25.799999	89.276	-149.9116
26.200001	89.305	-150.3659
26.500000	89.328	-150.6944
26.900000	89.359	-151.1310
27.200001	89.380	-151.4633
27.600000	89.404	-151.9102
28.000000	89.421	-152.3497
28.500000	89.434	-152.8660
29.000000	89.442	-153.3362
29.500000	89.448	-153.7757
30.000000	89.453	-154.2099
30.400000	89.456	-154.5606
30.700001	89.456	-154.8235
31.100000	89.456	-155.1689
31.500000	89.456	-155.5063
32.000000	89.457	-155.9227
32.500000	89.460	-156.3440
33.000000	89.463	-156.7694
33.500000	89.467	-157.1826
34.000000	89.474	-157.5670
34.500000	89.487	-157.9232
35.000000	89.504	-158.2691
35.500000	89.525	-158.6229
36.000000	89.545	-158.9888
36.500000	89.562	-159.3576
37.000000	89.575	-159.7157
37.500000	89.585	-160.0555
38.200001	89.596	-160.5075
38.700001	89.601	-160.8243
39.500000	89.604	-161.3225
40.000000	89.603	-161.6156
40.599998	89.603	-161.9409
41.200001	89.607	-162.2523
41.799999	89.614	-162.5744
42.500000	89.624	-162.9758
43.099998	89.630	-163.3274
43.700001	89.633	-163.6659
44.400002	89.634	-164.0324
45.000000	89.635	-164.3245
45.500000	89.635	-164.5567
46.200001	89.636	-164.8701
46.799999	89.637	-165.1344
47.500000	89.638	-165.4471
48.200001	89.638	-165.7660
48.700001	89.636	-165.9911
49.400002	89.634	-166.2954
50.000000	89.633	-166.5515
50.799999	89.632	-166.8991
51.500000	89.629	-167.2023
52.200001	89.625	-167.4850
53.000000	89.621	-167.7799
53.799999	89.619	-168.0667
54.500000	89.616	-168.3204
55.200001	89.611	-168.5692
56.000000	89.605	-168.8419
57.000000	89.597	-169.1776
58.000000	89.589	-169.5160
59.000000	89.581	-169.8493
60.000000	89.574	-170.1772
60.799999	89.568	-170.4345
61.500000	89.563	-170.6517
62.200001	89.557	-170.8600
63.000000	89.549	-171.0876
64.000000	89.540	-171.3587
65.000000	89.531	-171.6186
66.000000	89.522	-171.8764
67.000000	89.513	-172.1384
68.000000	89.504	-172.3969
69.000000	89.494	-172.6424
70.000000	89.484	-172.8739
71.000000	89.475	-173.0937
72.000000	89.465	-173.3038
73.000000	89.455	-173.5043
74.000000	89.444	-173.6993
75.000000	89.434	-173.8974
76.199997	89.420	-174.1472
77.500000	89.403	-174.4227
78.800003	89.385	-174.6778
80.000000	89.368	-174.8883
81.199997	89.353	-175.0831
82.500000	89.337	-175.2879
83.800003	89.319	-175.4855
85.000000	89.302	-175.6585
86.199997	89.286	-175.8311
87.500000	89.270	-176.0232
88.500000	89.258	-176.1694
90.000000	89.240	-176.3739
91.199997	89.224	-176.5246
92.500000	89.206	-176.6776
93.800003	89.187	-176.8274
95.000000	89.169	-176.9705
96.199997	89.150	-177.1141
97.500000	89.130	-177.2616
98.800003	89.111	-177.3993
100.000000	89.096	-177.5180
101.500000	89.077	-177.6561
103.000000	89.058	-177.7894
104.400002	89.039	-177.9091
106.000000	89.017	-178.0407
107.500000	88.997	-178.1643
109.000000	88.977	-178.2869
110.599998	88.956	-178.4095
112.000000	88.938	-178.5051
113.800003	88.914	-178.6096
115.000000	88.898	-178.6704
117.199997	88.870	-178.7686
118.000000	88.860	-178.8004
120.599998	88.830	-178.9129
122.000000	88.814	-178.9890
124.099998	88.789	-179.1106
125.000000	88.778	-179.1613
126.500000	88.759	-179.2398
128.000000	88.741	-179.3107
131.500000	88.698	-179.4479
132.000000	88.691	-179.4636
134.000000	88.666	-179.5199
136.000000	88.641	-179.5725
138.000000	88.615	-179.6232
140.000000	88.590	-179.6680
143.000000	88.553	-179.7143
145.000000	88.529	-179.7348
147.500000	88.499	-179.7663
150.000000	88.472	-179.8087
152.500000	88.448	-179.8461
155.000000	88.424	-179.8523
157.500000	88.396	-179.8135
160.000000	88.364	-179.7553
162.500000	88.332	-179.7142
165.000000	88.304	-179.7068
167.500000	88.278	-179.7276
170.000000	88.253	-179.7545
172.500000	88.230	-179.7628
175.000000	88.208	-179.7322
177.500000	88.189	-179.6776
180.000000	88.170	-179.6330
182.500000	88.149	-179.6023
185.000000	88.125	-179.5577
187.500000	88.100	-179.4814
190.000000	88.077	-179.3980
192.500000	88.055	-179.3289
195.000000	88.033	-179.2628
197.500000	88.011	-179.1828
200.000000	87.990	-179.0898
203.000000	87.966	-178.9779
206.000000	87.942	-178.8787
209.000000	87.919	-178.7836
212.000000	87.897	-178.6823
214.000000	87.881	-178.6131
218.000000	87.849	-178.4782
220.000000	87.832	-178.4129
224.000000	87.799	-178.2808
227.000000	87.773	-178.1793
230.000000	87.747	-178.0754
233.000000	87.722	-177.9632
236.000000	87.699	-177.8391
240.000000	87.671	-177.6641
243.000000	87.651	-177.5324
247.000000	87.625	-177.3531
250.000000	87.607	-177.2167
254.000000	87.586	-177.0378
258.000000	87.564	-176.8664
262.000000	87.542	-176.6990
265.000000	87.525	-176.5721
269.000000	87.504	-176.4020
272.000000	87.490	-176.2706
276.000000	87.473	-176.0889
280.000000	87.453	-175.9103
285.000000	87.426	-175.6844
290.000000	87.403	-175.4318
295.000000	87.385	-175.1658
300.000000	87.369	-174.9147
304.000000	87.355	-174.7182
307.000000	87.345	-174.5663
311.000000	87.333	-174.3563
315.000000	87.321	-174.1388
320.000000	87.303	-173.8505
325.000000	87.280	-173.5392
330.000000	87.249	-173.2334
335.000000	87.201	-172.9689
340.000000	87.141	-172.7986
345.000000	87.092	-172.7007
350.000000	87.083	-172.5274
355.000000	87.105	-172.1860
360.000000	87.125	-171.7927
365.000000	87.128	-171.4854
370.000000	87.117	-171.2320
375.000000	87.100	-170.9832
382.000000	87.074	-170.6862
387.000000	87.055	-170.4908
395.000000	87.028	-170.1154
400.000000	87.015	-169.8350
406.000000	87.002	-169.4455
412.000000	86.992	-169.0178
418.000000	86.983	-168.5786
425.000000	86.976	-168.0582
431.000000	86.974	-167.6230
437.000000	86.978	-167.2254
444.000000	86.990	-166.8355
450.000000	87.003	-166.5605
455.000000	87.014	-166.3571
462.000000	87.024	-166.0751
468.000000	87.022	-165.8052
475.000000	87.009	-165.4603
482.000000	86.994	-165.1117
487.000000	86.986	-164.8633
494.000000	86.979	-164.4993
500.000000	86.975	-164.1669
508.000000	86.972	-163.7138
515.000000	86.970	-163.3192
522.000000	86.967	-162.9261
530.000000	86.962	-162.4739
538.000000	86.956	-162.0173
545.000000	86.951	-161.6178
552.000000	86.946	-161.2151
560.000000	86.940	-160.7439
570.000000	86.935	-160.1444
580.000000	86.933	-159.5464
590.000000	86.932	-158.9518
600.000000	86.931	-158.3564
608.000000	86.932	-157.8768
615.000000	86.933	-157.4557
622.000000	86.935	-157.0319
630.000000	86.938	-156.5419
640.000000	86.941	-155.9242
650.000000	86.945	-155.3023
660.000000	86.950	-154.6701
670.000000	86.957	-154.0205
680.000000	86.967	-153.3517
690.000000	86.979	-152.6721
700.000000	86.995	-151.9934
710.000000	87.013	-151.3229
720.000000	87.033	-150.6564
730.000000	87.056	-149.9830
740.000000	87.081	-149.2969
750.000000	87.106	-148.6004
762.000000	87.139	-147.7579
775.000000	87.178	-146.8492
788.000000	87.221	-145.9468
800.000000	87.265	-145.1115
812.000000	87.313	-144.2722
825.000000	87.369	-143.3580
838.000000	87.430	-142.4402
850.000000	87.489	-141.5944
862.000000	87.551	-140.7564
875.000000	87.623	-139.8622
885.000000	87.682	-139.1852
900.000000	87.777	-138.1855
912.000000	87.859	-137.4000
925.000000	87.951	-136.5688
938.000000	88.048	-135.7631
950.000000	88.141	-135.0429
962.000000	88.238	-134.3466
975.000000	88.347	-133.6234
988.000000	88.460	-132.9333
1000.000000	88.568	-132.3249
1015.000000	88.705	-131.6071
1030.000000	88.847	-130.9431
1044.000000	88.982	-130.3708
1060.000000	89.138	-129.7692
1075.000000	89.281	-129.2584
1090.000000	89.420	-128.8037
1106.000000	89.567	-128.3846
1120.000000	89.696	-128.0705
1138.000000	89.862	-127.7281
1150.000000	89.972	-127.5340
1172.000000	90.171	-127.2430
1180.000000	90.242	-127.1580
1206.000000	90.473	-126.9557
1220.000000	90.598	-126.8848
1241.000000	90.787	-126.8174
1250.000000	90.867	-126.8031
1265.000000	90.999	-126.7985
1280.000000	91.127	-126.8151
1315.000000	91.414	-126.9126
1320.000000	91.454	-126.9315
1340.000000	91.609	-127.0167
1360.000000	91.761	-127.1133
1380.000000	91.912	-127.2149
1400.000000	92.061	-127.3192
1430.000000	92.278	-127.4796
1450.000000	92.419	-127.5879
1475.000000	92.590	-127.7234
1500.000000	92.755	-127.8600
1525.000000	92.913	-127.9983
1550.000000	93.062	-128.1352
1575.000000	93.206	-128.2712
1600.000000	93.346	-128.4092
1625.000000	93.485	-128.5513
1650.000000	93.623	-128.6992
1675.000000	93.761	-128.8541
1700.000000	93.901	-129.0179
1725.000000	94.043	-129.1936
1750.000000	94.186	-129.3840
1775.000000	94.330	-129.5904
1800.000000	94.474	-129.8117
1825.000000	94.619	-130.0500
1850.000000	94.764	-130.3096
1875.000000	94.910	-130.5935
1900.000000	95.056	-130.9042
1925.000000	95.202	-131.2449
1950.000000	95.348	-131.6181
1975.000000	95.494	-132.0257
2000.000000	95.638	-132.4691
2030.000000	95.809	-133.0482
2060.000000	95.977	-133.6797
2090.000000	96.141	-134.3643
2120.000000	96.301	-135.1011
2140.000000	96.404	-135.6206
2180.000000	96.604	-136.7283
2200.000000	96.700	-137.3173
2240.000000	96.883	-138.5616
2270.000000	97.011	-139.5470
2300.000000	97.131	-140.5737
2330.000000	97.242	-141.6402
2360.000000	97.346	-142.7456
2400.000000	97.470	-144.2773
2430.000000	97.552	-145.4645
2470.000000	97.645	-147.0886
2500.000000	97.702	-148.3302
2540.000000	97.760	-150.0039
2580.000000	97.798	-151.6836
2620.000000	97.814	-153.3554
2650.000000	97.814	-154.5959
2690.000000	97.796	-156.2208
2720.000000	97.771	-157.4103
2760.000000	97.721	-158.9478
2800.000000	97.656	-160.4207
2850.000000	97.555	-162.1588
2900.000000	97.434	-163.7686
2950.000000	97.297	-165.2358
3000.000000	97.147	-166.5540
3040.000000	97.021	-167.5022
3070.000000	96.925	-168.1518
3110.000000	96.795	-168.9371
3150.000000	96.664	-169.6327
3200.000000	96.503	-170.3801
3250.000000	96.345	-170.9978
3300.000000	96.195	-171.4951
3350.000000	96.056	-171.8893
3400.000000	95.931	-172.2095
3450.000000	95.820	-172.4894
3500.000000	95.721	-172.7549
3550.000000	95.632	-173.0205
3600.000000	95.550	-173.2936
3650.000000	95.475	-173.5777
3700.000000	95.406	-173.8766
3750.000000	95.341	-174.1974
3820.000000	95.258	-174.6937
3870.000000	95.203	-175.0834
3950.000000	95.117	-175.7642
4000.000000	95.064	-176.2198
4060.000000	94.997	-176.7883
4120.000000	94.926	-177.3775
4180.000000	94.851	-177.9882
4250.000000	94.756	-178.7268
4310.000000	94.669	-179.3815
4370.000000	94.576	179.9449
4440.000000	94.457	179.1421
4500.000000	94.345	178.4462
4550.000000	94.245	177.8662
4620.000000	94.091	177.0650
4680.000000	93.948	176.3991
4750.000000	93.765	175.6606
4820.000000	93.563	174.9800
4870.000000	93.405	174.5433
4940.000000	93.166	174.0333
5000.000000	92.947	173.7264
5080.000000	92.644	173.5526
5150.000000	92.383	173.6314
5220.000000	92.137	173.8934
5300.000000	91.886	174.3291
5380.000000	91.669	174.7912
5450.000000	91.500	175.1384
5520.000000	91.341	175.3913
5600.000000	91.164	175.5477
5700.000000	90.933	175.5663
5800.000000	90.678	175.4651
5900.000000	90.391	175.3699
6000.000000	90.073	175.4172
6080.000000	89.804	175.6187
6150.000000	89.566	175.9279
6220.000000	89.331	176.3553
6300.000000	89.071	176.9689
6400.000000	88.763	177.8765
6500.000000	88.478	178.8804
6600.000000	88.215	179.9292
6700.000000	87.973	-179.0123
6800.000000	87.749	-177.9637
6900.000000	87.538	-176.9242
7000.000000	87.338	-175.8765
7100.000000	87.145	-174.7987
7200.000000	86.958	-173.6830
7300.000000	86.777	-172.5325
7400.000000	86.600	-171.3401
7500.000000	86.425	-170.0791
7620.000000	86.220	-168.4342
7750.000000	86.009	-166.4631
7880.000000	85.823	-164.3100
8000.000000	85.688	-162.2010
8120.000000	85.601	-160.0359
8250.000000	85.570	-157.7248
8380.000000	85.609	-155.5656
8500.000000	85.701	-153.8036
8620.000000	85.834	-152.3330
8750.000000	86.013	-151.1094
8850.000000	86.170	-150.4441
9000.000000	86.432	-149.9334
9120.000000	86.660	-150.0017
9250.000000	86.912	-150.6345
9380.000000	87.149	-151.9148
9500.000000	87.329	-153.6837
9620.000000	87.449	-155.9563
9750.000000	87.493	-158.8399
9880.000000	87.435	-161.9681
10000.000000	87.289	-164.8960
10150.000000	86.985	-168.3524
10300.000000	86.561	-171.3063
10440.000000	86.081	-173.4271
10600.000000	85.474	-175.0044
10750.000000	84.887	-175.6768
10900.000000	84.317	-175.6526
11060.000000	83.756	-174.9944
11200.000000	83.322	-174.0008
11380.000000	82.858	-172.3131
11500.000000	82.616	-171.0188
11720.000000	82.324	-168.4765
11800.000000	82.270	-167.5412
12060.000000	82.307	-164.7019
12200.000000	82.477	-163.4482
12410.000000	82.939	-162.2191
12500.000000	83.209	-162.0296
12650.000000	83.743	-162.3282
12800.000000	84.355	-163.6039
13150.000000	85.837	-171.7433
13200.000000	86.023	-173.5876
13400.000000	86.608	177.3848
13600.000000	86.857	166.3654
13800.000000	86.720	154.7482
14000.000000	86.217	144.0822
14300.000000	85.002	132.0644
14500.000000	84.155	126.7068
14750.000000	83.386	121.2296
15000.000000	83.052	114.8018
15250.000000	83.012	105.2224
15500.000000	82.921	91.0355
15750.000000	82.367	72.9688
16000.000000	81.076	54.5181
16250.000000	79.034	39.6271
16500.000000	76.423	29.8879
16750.000000	73.508	24.5125
17000.000000	70.530	21.9191
17250.000000	67.650	20.6514
17500.000000	64.923	19.3936
17750.000000	62.330	15.9974
18000.000000	59.831	4.2622
18250.000000	57.380	-35.0053
18500.000000	54.949	-154.6191
18750.000000	52.578	-113.1833
19000.000000	50.373	-115.5541
19250.000000	48.449	-39.8174
19500.000000	46.910	68.2671
19750.000000	45.824	-41.8369
