* Measurement data measured by REW V5.20.7
* Source: Mic in at rear panel (Pink)(Realtek(R) Audio), MICROPHONE (마스), L, volume: 1.000
* Format: 128k Log Swept Sine, 1 sweep at -12.0 dBFS with no timing reference
* Dated: 2022. 4. 23 오후 7:24:53
* REW Settings:
*  C-weighting compensation: Off
*  Target level: 75.0 dB
* Note: 
* Measurement: 4월 23
* Smoothing: 1/24 octave
* Frequency Step: 1/48 octave
* Start Frequency: 20.300 Hz
*
* Freq(Hz)	SPL(dB)	Phase(degrees)
20.299999	75.593	165.2102
20.600000	75.519	165.8663
20.900000	75.395	167.0755
21.200001	75.348	168.2543
21.400000	75.352	168.8717
21.799999	75.389	169.6062
22.000000	75.399	169.7290
22.400000	75.375	169.6533
22.700001	75.323	169.4986
23.000000	75.251	169.4054
23.299999	75.168	169.4686
23.600000	75.092	169.7369
24.000000	75.043	170.3642
24.299999	75.071	170.8331
24.700001	75.185	171.0474
25.000000	75.275	170.6935
25.400000	75.314	169.6452
25.799999	75.196	168.6847
26.200001	74.964	168.8170
26.500000	74.812	169.8970
26.900000	74.778	172.2086
27.200001	74.913	173.8578
27.600000	75.223	175.0250
28.000000	75.495	174.7621
28.500000	75.602	173.5057
29.000000	75.498	172.9165
29.500000	75.388	173.4457
30.000000	75.387	174.1902
30.400000	75.417	174.3968
30.700001	75.419	174.3695
31.100000	75.388	174.4234
31.500000	75.354	174.8083
32.000000	75.388	175.5858
32.500000	75.520	176.0580
33.000000	75.661	175.8974
33.500000	75.736	175.4573
34.000000	75.760	175.2226
34.500000	75.782	175.2569
35.000000	75.811	175.3750
35.500000	75.825	175.5649
36.000000	75.829	175.9710
36.500000	75.850	176.5118
37.000000	75.877	176.8579
37.500000	75.842	176.9666
38.200001	75.646	177.8418
38.700001	75.545	179.6559
39.500000	75.809	-177.2869
40.000000	76.120	-177.0887
40.599998	76.340	-178.7324
41.200001	76.285	179.3134
41.799999	76.104	178.3939
42.500000	76.001	178.2941
43.099998	76.032	178.0038
43.700001	76.078	177.3621
44.400002	76.116	176.6140
45.000000	76.151	176.0824
45.500000	76.172	175.6848
46.200001	76.178	175.3577
46.799999	76.187	175.3910
47.500000	76.231	175.5667
48.200001	76.285	175.6787
48.700001	76.314	175.7355
49.400002	76.332	175.8085
50.000000	76.321	175.9081
50.799999	76.304	176.2449
51.500000	76.330	176.5138
52.200001	76.364	176.4143
53.000000	76.349	176.2225
53.799999	76.335	176.4876
54.500000	76.383	176.7842
55.200001	76.460	176.7276
56.000000	76.513	176.0807
57.000000	76.411	174.8115
58.000000	76.124	174.2288
59.000000	75.819	174.7957
60.000000	75.721	176.4809
60.799999	75.959	177.4046
61.500000	76.268	176.6319
62.200001	76.437	174.5939
63.000000	76.366	172.7870
64.000000	76.332	173.5713
65.000000	76.745	173.9938
66.000000	76.902	171.9747
67.000000	76.718	171.7298
68.000000	76.725	172.6459
69.000000	76.790	171.9672
70.000000	76.613	170.3691
71.000000	76.261	170.1009
72.000000	76.121	171.1475
73.000000	76.242	171.5236
74.000000	76.396	170.8748
75.000000	76.445	170.2468
76.199997	76.520	170.6196
77.500000	76.609	170.6221
78.800003	76.541	171.1620
80.000000	76.505	171.5013
81.199997	76.383	171.5799
82.500000	76.304	171.7341
83.800003	76.301	171.3340
85.000000	76.314	170.8470
86.199997	76.343	170.3299
87.500000	76.310	169.7962
88.500000	76.253	169.6000
90.000000	76.116	169.0234
91.199997	75.928	168.5412
92.500000	75.786	168.4068
93.800003	75.851	168.0829
95.000000	75.995	167.2708
96.199997	76.144	166.8498
97.500000	76.353	166.5459
98.800003	76.336	165.7581
100.000000	76.106	166.0949
101.500000	75.903	166.9320
103.000000	75.802	167.0781
104.400002	75.829	167.0831
106.000000	75.942	167.3917
107.500000	75.999	167.9765
109.000000	75.922	168.2178
110.599998	75.679	167.6619
112.000000	75.538	167.1235
113.800003	75.727	167.2300
115.000000	75.983	168.8150
117.199997	76.621	178.1115
118.000000	77.120	-176.8207
120.599998	78.489	-174.0644
122.000000	77.567	179.8403
124.099998	75.578	174.7550
125.000000	75.191	173.3318
126.500000	75.207	171.5764
128.000000	75.564	170.8244
131.500000	75.842	170.1471
132.000000	75.809	170.0654
134.000000	75.768	169.3055
136.000000	75.859	168.1883
138.000000	75.937	167.5474
140.000000	75.875	167.1160
143.000000	75.695	166.0135
145.000000	75.630	165.2324
147.500000	75.574	165.1023
150.000000	75.474	165.1258
152.500000	75.328	164.8545
155.000000	75.237	164.5709
157.500000	75.154	164.5177
160.000000	75.065	164.6532
162.500000	74.970	164.5738
165.000000	74.874	164.5192
167.500000	74.809	164.6752
170.000000	74.743	164.9341
172.500000	74.638	165.1387
175.000000	74.547	165.3186
177.500000	74.500	165.5057
180.000000	74.444	165.7171
182.500000	74.333	166.0591
185.000000	74.235	166.6029
187.500000	74.200	167.1565
190.000000	74.197	167.6756
192.500000	74.231	168.1000
195.000000	74.315	168.0898
197.500000	74.392	167.6026
200.000000	74.426	167.0315
203.000000	74.426	166.4408
206.000000	74.389	166.0716
209.000000	74.323	165.9902
212.000000	74.251	165.9943
214.000000	74.213	165.9230
218.000000	74.137	165.7919
220.000000	74.082	165.7780
224.000000	73.940	165.7102
227.000000	73.850	165.7056
230.000000	73.785	165.9010
233.000000	73.730	166.0953
236.000000	73.675	166.1130
240.000000	73.582	166.2615
243.000000	73.515	166.6103
247.000000	73.442	167.0369
250.000000	73.377	167.2873
254.000000	73.284	167.4501
258.000000	73.207	167.6483
262.000000	73.143	167.9331
265.000000	73.105	168.1008
269.000000	73.056	168.3071
272.000000	72.999	168.4251
276.000000	72.939	168.5885
280.000000	72.888	168.8451
285.000000	72.843	169.2074
290.000000	72.825	169.3566
295.000000	72.781	169.8351
300.000000	72.735	170.4087
304.000000	72.677	170.6794
307.000000	72.640	170.7152
311.000000	72.620	170.7339
315.000000	72.601	170.9468
320.000000	72.556	171.3611
325.000000	72.507	171.7565
330.000000	72.460	172.1036
335.000000	72.366	172.6448
340.000000	72.274	173.2271
345.000000	72.231	173.5746
350.000000	72.187	173.8378
355.000000	72.122	174.1180
360.000000	72.044	174.5570
365.000000	72.009	175.2112
370.000000	71.990	175.7297
375.000000	71.950	176.0128
382.000000	71.863	176.1419
387.000000	71.776	176.4118
395.000000	71.709	177.0978
400.000000	71.704	177.6000
406.000000	71.688	178.0641
412.000000	71.638	178.4442
418.000000	71.576	179.0408
425.000000	71.527	179.7894
431.000000	71.512	-179.8876
437.000000	71.503	-179.5790
444.000000	71.478	-179.0708
450.000000	71.465	-178.5553
455.000000	71.464	-178.1029
462.000000	71.450	-177.3860
468.000000	71.420	-176.7939
475.000000	71.376	-176.3121
482.000000	71.372	-175.8068
487.000000	71.363	-175.3739
494.000000	71.299	-174.7522
500.000000	71.227	-174.3876
508.000000	71.184	-173.9310
515.000000	71.173	-173.2207
522.000000	71.156	-172.3564
530.000000	71.126	-171.6110
538.000000	71.070	-171.1478
545.000000	71.039	-170.6728
552.000000	71.005	-170.0364
560.000000	70.954	-169.5234
570.000000	70.893	-168.8798
580.000000	70.876	-167.8374
590.000000	70.882	-166.9089
600.000000	70.850	-166.1886
608.000000	70.821	-165.6656
615.000000	70.812	-165.0547
622.000000	70.823	-164.4585
630.000000	70.836	-163.8536
640.000000	70.854	-163.0003
650.000000	70.881	-162.2154
660.000000	70.877	-161.4880
670.000000	70.861	-160.6461
680.000000	70.844	-159.7532
690.000000	70.845	-159.0500
700.000000	70.872	-158.3356
710.000000	70.888	-157.5062
720.000000	70.891	-156.6840
730.000000	70.891	-155.6993
740.000000	70.893	-154.7592
750.000000	70.897	-154.1106
762.000000	70.914	-153.3096
775.000000	70.932	-152.2177
788.000000	70.972	-151.1315
800.000000	71.019	-150.2191
812.000000	71.065	-149.3036
825.000000	71.087	-148.4269
838.000000	71.119	-147.4336
850.000000	71.153	-146.4311
862.000000	71.177	-145.5952
875.000000	71.238	-144.6642
885.000000	71.300	-143.9532
900.000000	71.374	-142.9709
912.000000	71.427	-142.2152
925.000000	71.513	-141.3859
938.000000	71.596	-140.6249
950.000000	71.658	-140.0314
962.000000	71.725	-139.3866
975.000000	71.791	-138.5269
988.000000	71.835	-137.5801
1000.000000	71.879	-136.8571
1015.000000	71.986	-136.2793
1030.000000	72.082	-135.6345
1044.000000	72.170	-134.9490
1060.000000	72.282	-134.2835
1075.000000	72.386	-133.5988
1090.000000	72.486	-133.0766
1106.000000	72.559	-132.5875
1120.000000	72.613	-132.0736
1138.000000	72.706	-131.2536
1150.000000	72.765	-130.6394
1172.000000	72.860	-129.6267
1180.000000	72.898	-129.3152
1206.000000	73.059	-128.6316
1220.000000	73.158	-128.3595
1241.000000	73.275	-127.9736
1250.000000	73.316	-127.8287
1265.000000	73.390	-127.5695
1280.000000	73.476	-127.2644
1315.000000	73.737	-126.6187
1320.000000	73.776	-126.5447
1340.000000	73.933	-126.2631
1360.000000	74.072	-125.9178
1380.000000	74.170	-125.6725
1400.000000	74.240	-125.5227
1430.000000	74.293	-125.2346
1450.000000	74.279	-124.9006
1475.000000	74.238	-124.3549
1500.000000	74.141	-123.4437
1525.000000	74.002	-122.0511
1550.000000	73.926	-120.1195
1575.000000	73.891	-117.7160
1600.000000	73.913	-114.7852
1625.000000	74.017	-111.5464
1650.000000	74.257	-108.0485
1675.000000	74.706	-104.5841
1700.000000	75.327	-101.9439
1725.000000	76.000	-100.7951
1750.000000	76.608	-101.0455
1775.000000	77.079	-102.0447
1800.000000	77.425	-103.2591
1825.000000	77.676	-104.3228
1850.000000	77.864	-105.1097
1875.000000	78.023	-105.6847
1900.000000	78.183	-105.9973
1925.000000	78.347	-106.1616
1950.000000	78.509	-106.2753
1975.000000	78.672	-106.2665
2000.000000	78.848	-106.1816
2030.000000	79.065	-106.1678
2060.000000	79.279	-106.0921
2090.000000	79.493	-105.9947
2120.000000	79.725	-105.9629
2140.000000	79.885	-105.9069
2180.000000	80.214	-105.8122
2200.000000	80.385	-105.8047
2240.000000	80.725	-105.8091
2270.000000	80.980	-105.8784
2300.000000	81.244	-106.0969
2330.000000	81.523	-106.3553
2360.000000	81.819	-106.6707
2400.000000	82.236	-107.3835
2430.000000	82.551	-108.1317
2470.000000	82.957	-109.4057
2500.000000	83.253	-110.5796
2540.000000	83.613	-112.3794
2580.000000	83.934	-114.4295
2620.000000	84.220	-116.6866
2650.000000	84.406	-118.4451
2690.000000	84.624	-120.8253
2720.000000	84.770	-122.6541
2760.000000	84.930	-125.1614
2800.000000	85.059	-127.7641
2850.000000	85.175	-131.1090
2900.000000	85.213	-134.4739
2950.000000	85.182	-137.7582
3000.000000	85.081	-140.8743
3040.000000	84.963	-143.1964
3070.000000	84.859	-144.8324
3110.000000	84.693	-146.8289
3150.000000	84.497	-148.5885
3200.000000	84.239	-150.4857
3250.000000	83.973	-152.1298
3300.000000	83.707	-153.4939
3350.000000	83.452	-154.5446
3400.000000	83.185	-155.4153
3450.000000	82.926	-156.1548
3500.000000	82.690	-156.7512
3550.000000	82.451	-157.3026
3600.000000	82.202	-157.7587
3650.000000	81.944	-158.1105
3700.000000	81.664	-158.3451
3750.000000	81.367	-158.3234
3820.000000	80.951	-157.7624
3870.000000	80.667	-157.0698
3950.000000	80.276	-155.4856
4000.000000	80.072	-154.2933
4060.000000	79.868	-152.7626
4120.000000	79.705	-151.0840
4180.000000	79.553	-149.3647
4250.000000	79.389	-147.3210
4310.000000	79.277	-145.4809
4370.000000	79.195	-143.6552
4440.000000	79.158	-141.5374
4500.000000	79.184	-139.7577
4550.000000	79.230	-138.3690
4620.000000	79.317	-136.4203
4680.000000	79.415	-134.7751
4750.000000	79.545	-132.9946
4820.000000	79.695	-131.3147
4870.000000	79.813	-130.1325
4940.000000	79.977	-128.5558
5000.000000	80.121	-127.2693
5080.000000	80.330	-125.5337
5150.000000	80.534	-123.9832
5220.000000	80.772	-122.3756
5300.000000	81.089	-120.4408
5380.000000	81.455	-118.6610
5450.000000	81.831	-117.2602
5520.000000	82.270	-116.0134
5600.000000	82.845	-114.9207
5700.000000	83.629	-114.1201
5800.000000	84.494	-114.1283
5900.000000	85.454	-115.2953
6000.000000	86.488	-117.7960
6080.000000	87.329	-121.0821
6150.000000	88.029	-125.0259
6220.000000	88.646	-129.9716
6300.000000	89.180	-136.8055
6400.000000	89.510	-146.5783
6500.000000	89.423	-156.4685
6600.000000	88.965	-165.2327
6700.000000	88.250	-172.1105
6800.000000	87.417	-176.9543
6900.000000	86.584	179.9020
7000.000000	85.815	178.1501
7100.000000	85.140	177.4486
7200.000000	84.580	177.3497
7300.000000	84.134	177.6293
7400.000000	83.793	178.1708
7500.000000	83.548	178.7905
7620.000000	83.359	179.5466
7750.000000	83.246	-179.7987
7880.000000	83.178	-179.6784
8000.000000	83.145	179.8203
8120.000000	83.150	178.4739
8250.000000	83.169	175.8338
8380.000000	83.138	171.9185
8500.000000	83.007	167.2205
8620.000000	82.698	161.9405
8750.000000	82.107	156.2807
8850.000000	81.500	152.3618
9000.000000	80.417	147.8677
9120.000000	79.446	145.7529
9250.000000	78.358	144.7396
9380.000000	77.308	144.8803
9500.000000	76.392	145.9748
9620.000000	75.532	147.7404
9750.000000	74.687	150.2155
9880.000000	73.931	153.1810
10000.000000	73.315	156.1876
10150.000000	72.651	160.2830
10300.000000	72.103	164.6731
10440.000000	71.706	168.7827
10600.000000	71.337	173.5637
10750.000000	71.040	178.2889
10900.000000	70.842	-176.9799
11060.000000	70.741	-172.0825
11200.000000	70.747	-167.8534
11380.000000	70.879	-162.5791
11500.000000	71.034	-159.2233
11720.000000	71.450	-153.2538
11800.000000	71.653	-151.1907
12060.000000	72.527	-145.1133
12200.000000	73.132	-142.2868
12410.000000	74.276	-139.0441
12500.000000	74.852	-138.0944
12650.000000	75.917	-137.2449
12800.000000	77.115	-137.6440
13150.000000	80.117	-145.6068
13200.000000	80.507	-147.7226
13400.000000	81.784	-158.6972
13600.000000	82.473	-172.3623
13800.000000	82.611	173.7757
14000.000000	82.483	161.1816
14300.000000	82.351	142.8781
14500.000000	82.240	127.8725
14750.000000	81.395	104.9524
15000.000000	79.201	83.5419
15250.000000	75.880	70.1814
15500.000000	72.158	65.0739
15750.000000	68.606	65.3118
16000.000000	65.551	68.4436
16250.000000	63.045	73.1692
16500.000000	60.924	78.9985
16750.000000	59.124	85.8517
17000.000000	57.586	93.0225
17250.000000	56.284	99.8049
17500.000000	55.140	107.0411
17750.000000	54.139	115.5054
18000.000000	53.353	124.0768
18250.000000	52.730	125.8114
18500.000000	52.255	91.7831
18750.000000	52.103	-24.8737
19000.000000	52.147	-148.1629
19250.000000	52.339	162.4221
19500.000000	52.504	116.6632
19750.000000	52.477	4.7727
20000.000000	52.382	-97.5620
