* Measurement data measured by REW V5.20.13
* Source: EXCL: Microphone(High Definition Audio Device), MICROPHONE (마스), R, volume: 1.000
* Format: 256k Log Swept Sine, 1 sweep at -12.0 dBFS with no timing reference
* Dated: 2023. 3. 26 오후 11:00:12
* REW Settings:
*  C-weighting compensation: Off
*  Target level: 75.0 dB
* Note: 
* Measurement: R_07
* Smoothing: 1/24 octave
* Frequency Step: 1/48 octave
* Start Frequency: 20.300 Hz
*
* Freq(Hz)	SPL(dB)	Phase(degrees)
20.299999	100.480	-0.0915
20.600000	100.462	-0.1962
20.900000	100.433	-0.3844
21.200001	100.423	-0.5899
21.400000	100.428	-0.7968
21.799999	100.448	-1.4818
22.000000	100.452	-1.9808
22.400000	100.426	-3.2255
22.700001	100.367	-4.2246
23.000000	100.278	-5.1162
23.299999	100.178	-5.8055
23.600000	100.086	-6.2833
24.000000	100.006	-6.6822
24.299999	99.986	-6.9398
24.700001	100.005	-7.4003
25.000000	100.035	-7.9022
25.400000	100.070	-8.7792
25.799999	100.074	-9.7852
26.200001	100.031	-10.7246
26.500000	99.971	-11.2433
26.900000	99.872	-11.5491
27.200001	99.809	-11.4781
27.600000	99.775	-11.1327
28.000000	99.809	-10.8509
28.500000	99.891	-11.0642
29.000000	99.910	-11.8656
29.500000	99.824	-12.6319
30.000000	99.703	-12.8585
30.400000	99.648	-12.8121
30.700001	99.639	-12.8748
31.100000	99.633	-13.2786
31.500000	99.589	-13.9420
32.000000	99.460	-14.6000
32.500000	99.329	-14.6446
33.000000	99.301	-14.4368
33.500000	99.362	-14.7116
34.000000	99.396	-15.6502
34.500000	99.337	-16.6527
35.000000	99.233	-17.1698
35.500000	99.171	-17.3328
36.000000	99.151	-17.6890
36.500000	99.093	-18.3773
37.000000	98.944	-18.8634
37.500000	98.761	-18.5806
38.200001	98.665	-17.2926
38.700001	98.744	-16.8289
39.500000	98.826	-17.8354
40.000000	98.740	-18.6728
40.599998	98.585	-18.9275
41.200001	98.533	-18.6850
41.799999	98.584	-18.9416
42.500000	98.598	-20.1132
43.099998	98.512	-21.0132
43.700001	98.417	-21.4004
44.400002	98.359	-21.6335
45.000000	98.318	-21.9021
45.500000	98.274	-22.0435
46.200001	98.233	-22.0984
46.799999	98.221	-22.3132
47.500000	98.164	-22.8674
48.200001	98.033	-23.2206
48.700001	97.936	-23.1100
49.400002	97.877	-22.7075
50.000000	97.895	-22.6534
50.799999	97.905	-23.2379
51.500000	97.841	-23.7695
52.200001	97.770	-23.8740
53.000000	97.749	-23.7968
53.799999	97.757	-23.9514
54.500000	97.740	-24.2443
55.200001	97.689	-24.5373
56.000000	97.599	-24.7040
57.000000	97.497	-24.8120
58.000000	97.373	-25.2491
59.000000	97.191	-25.4756
60.000000	97.064	-25.3496
60.799999	97.022	-25.3120
61.500000	97.025	-25.3819
62.200001	97.054	-25.6960
63.000000	97.055	-26.3551
64.000000	96.965	-26.8928
65.000000	96.881	-26.7677
66.000000	96.845	-26.6120
67.000000	96.801	-26.7108
68.000000	96.708	-26.9335
69.000000	96.584	-26.9081
70.000000	96.512	-26.6797
71.000000	96.487	-26.8338
72.000000	96.406	-27.1816
73.000000	96.305	-26.9890
74.000000	96.283	-26.6346
75.000000	96.280	-26.7098
76.199997	96.217	-27.0013
77.500000	96.111	-27.2575
78.800003	96.011	-27.4345
80.000000	95.931	-27.5993
81.199997	95.881	-27.5846
82.500000	95.877	-27.7443
83.800003	95.824	-28.0958
85.000000	95.739	-28.1461
86.199997	95.665	-28.1292
87.500000	95.592	-28.2508
88.500000	95.524	-28.4767
90.000000	95.410	-28.3637
91.199997	95.416	-28.0861
92.500000	95.447	-28.2132
93.800003	95.420	-28.3945
95.000000	95.357	-28.2920
96.199997	95.303	-27.9972
97.500000	95.266	-27.8458
98.800003	95.206	-27.9348
100.000000	95.139	-27.9345
101.500000	95.085	-27.9338
103.000000	95.026	-28.0203
104.400002	94.963	-27.9432
106.000000	94.913	-27.8054
107.500000	94.870	-27.7611
109.000000	94.825	-27.7635
110.599998	94.780	-27.7589
112.000000	94.749	-27.8320
113.800003	94.682	-27.9228
115.000000	94.635	-27.8132
117.199997	94.573	-27.5052
118.000000	94.548	-27.4069
120.599998	94.469	-27.0692
122.000000	94.433	-27.0562
124.099998	94.380	-27.1280
125.000000	94.365	-27.1711
126.500000	94.340	-27.2372
128.000000	94.311	-27.2093
131.500000	94.232	-27.0465
132.000000	94.217	-27.0432
134.000000	94.149	-27.0065
136.000000	94.097	-26.8820
138.000000	94.059	-26.7749
140.000000	94.018	-26.6686
143.000000	93.947	-26.4889
145.000000	93.909	-26.3533
147.500000	93.865	-26.3050
150.000000	93.803	-26.3177
152.500000	93.735	-26.2127
155.000000	93.689	-26.0684
157.500000	93.648	-25.9385
160.000000	93.608	-25.8083
162.500000	93.557	-25.7110
165.000000	93.501	-25.5725
167.500000	93.458	-25.4593
170.000000	93.415	-25.3774
172.500000	93.364	-25.2423
175.000000	93.315	-25.0777
177.500000	93.277	-24.9116
180.000000	93.251	-24.7896
182.500000	93.220	-24.6930
185.000000	93.189	-24.5782
187.500000	93.165	-24.4445
190.000000	93.142	-24.2963
192.500000	93.113	-24.1744
195.000000	93.081	-24.1164
197.500000	93.046	-24.0322
200.000000	93.026	-23.8851
203.000000	93.013	-23.8126
206.000000	92.994	-23.7927
209.000000	92.973	-23.6861
212.000000	92.953	-23.5338
214.000000	92.940	-23.4598
218.000000	92.915	-23.2860
220.000000	92.907	-23.1738
224.000000	92.889	-23.0418
227.000000	92.874	-22.9679
230.000000	92.865	-22.8356
233.000000	92.857	-22.6872
236.000000	92.838	-22.5686
240.000000	92.802	-22.4270
243.000000	92.773	-22.3919
247.000000	92.737	-22.3699
250.000000	92.714	-22.2617
254.000000	92.679	-22.1312
258.000000	92.648	-22.1156
262.000000	92.632	-22.0610
265.000000	92.620	-21.9788
269.000000	92.595	-21.8646
272.000000	92.577	-21.7849
276.000000	92.556	-21.6726
280.000000	92.541	-21.5945
285.000000	92.528	-21.6156
290.000000	92.498	-21.5153
295.000000	92.478	-21.2786
300.000000	92.465	-21.0846
304.000000	92.446	-20.9723
307.000000	92.434	-20.8661
311.000000	92.418	-20.6966
315.000000	92.395	-20.5959
320.000000	92.362	-20.4957
325.000000	92.330	-20.3798
330.000000	92.304	-20.2436
335.000000	92.286	-20.0974
340.000000	92.266	-19.9331
345.000000	92.239	-19.8587
350.000000	92.215	-19.7659
355.000000	92.197	-19.5766
360.000000	92.180	-19.4303
365.000000	92.162	-19.2974
370.000000	92.136	-19.1977
375.000000	92.105	-19.0829
382.000000	92.069	-18.8876
387.000000	92.051	-18.7484
395.000000	92.010	-18.5072
400.000000	91.988	-18.3840
406.000000	91.962	-18.2404
412.000000	91.942	-18.0946
418.000000	91.917	-17.9290
425.000000	91.887	-17.7189
431.000000	91.876	-17.5147
437.000000	91.859	-17.3129
444.000000	91.832	-17.1113
450.000000	91.807	-16.9889
455.000000	91.794	-16.9356
462.000000	91.777	-16.8646
468.000000	91.765	-16.7043
475.000000	91.759	-16.4291
482.000000	91.750	-16.2401
487.000000	91.738	-16.1189
494.000000	91.719	-15.8958
500.000000	91.702	-15.7006
508.000000	91.680	-15.4902
515.000000	91.668	-15.2946
522.000000	91.659	-15.1050
530.000000	91.647	-14.8836
538.000000	91.630	-14.6798
545.000000	91.618	-14.5085
552.000000	91.607	-14.2614
560.000000	91.588	-13.9643
570.000000	91.560	-13.7371
580.000000	91.539	-13.4123
590.000000	91.515	-13.1135
600.000000	91.494	-12.8333
608.000000	91.485	-12.5461
615.000000	91.477	-12.3111
622.000000	91.467	-12.1056
630.000000	91.450	-11.7971
640.000000	91.431	-11.3684
650.000000	91.429	-11.0209
660.000000	91.430	-10.7316
670.000000	91.423	-10.4103
680.000000	91.415	-10.0031
690.000000	91.404	-9.5706
700.000000	91.389	-9.1953
710.000000	91.384	-8.8292
720.000000	91.381	-8.4705
730.000000	91.375	-8.1289
740.000000	91.373	-7.7201
750.000000	91.375	-7.2743
762.000000	91.377	-6.7677
775.000000	91.387	-6.2513
788.000000	91.398	-5.7126
800.000000	91.406	-5.1989
812.000000	91.427	-4.6602
825.000000	91.458	-4.0927
838.000000	91.489	-3.6164
850.000000	91.520	-3.1464
862.000000	91.557	-2.6341
875.000000	91.608	-2.1007
885.000000	91.649	-1.7102
900.000000	91.714	-1.1696
912.000000	91.770	-0.7867
925.000000	91.832	-0.3592
938.000000	91.899	0.1036
950.000000	91.969	0.4741
962.000000	92.040	0.7795
975.000000	92.117	1.0942
988.000000	92.202	1.3860
1000.000000	92.288	1.6602
1015.000000	92.388	1.9299
1030.000000	92.491	2.1196
1044.000000	92.591	2.2596
1060.000000	92.697	2.3841
1075.000000	92.789	2.4627
1090.000000	92.886	2.4997
1106.000000	92.988	2.5244
1120.000000	93.070	2.5131
1138.000000	93.177	2.4514
1150.000000	93.248	2.3748
1172.000000	93.377	2.2410
1180.000000	93.424	2.1943
1206.000000	93.560	2.0007
1220.000000	93.629	1.8461
1241.000000	93.735	1.5943
1250.000000	93.775	1.4800
1265.000000	93.835	1.2883
1280.000000	93.893	1.1155
1315.000000	94.025	0.7644
1320.000000	94.043	0.7161
1340.000000	94.111	0.5367
1360.000000	94.172	0.3378
1380.000000	94.230	0.1767
1400.000000	94.290	0.0293
1430.000000	94.380	-0.1950
1450.000000	94.438	-0.2782
1475.000000	94.507	-0.3740
1500.000000	94.566	-0.4640
1525.000000	94.625	-0.5344
1550.000000	94.692	-0.5797
1575.000000	94.759	-0.6351
1600.000000	94.825	-0.6688
1625.000000	94.889	-0.6742
1650.000000	94.958	-0.6364
1675.000000	95.034	-0.5948
1700.000000	95.110	-0.5552
1725.000000	95.188	-0.5106
1750.000000	95.268	-0.4619
1775.000000	95.347	-0.4185
1800.000000	95.429	-0.3936
1825.000000	95.517	-0.3580
1850.000000	95.609	-0.3091
1875.000000	95.699	-0.2739
1900.000000	95.789	-0.2512
1925.000000	95.883	-0.2282
1950.000000	95.979	-0.1984
1975.000000	96.073	-0.1640
2000.000000	96.170	-0.1315
2030.000000	96.293	-0.0975
2060.000000	96.418	-0.0827
2090.000000	96.548	-0.1144
2120.000000	96.685	-0.1676
2140.000000	96.776	-0.2207
2180.000000	96.963	-0.3499
2200.000000	97.059	-0.4240
2240.000000	97.254	-0.6142
2270.000000	97.405	-0.7939
2300.000000	97.560	-1.0112
2330.000000	97.717	-1.2743
2360.000000	97.877	-1.5855
2400.000000	98.096	-2.0615
2430.000000	98.265	-2.4659
2470.000000	98.495	-3.0954
2500.000000	98.671	-3.6368
2540.000000	98.907	-4.4555
2580.000000	99.146	-5.4243
2620.000000	99.382	-6.5292
2650.000000	99.552	-7.4287
2690.000000	99.772	-8.7240
2720.000000	99.932	-9.7904
2760.000000	100.137	-11.3383
2800.000000	100.326	-13.0060
2850.000000	100.536	-15.2527
2900.000000	100.712	-17.6934
2950.000000	100.848	-20.2952
3000.000000	100.941	-22.9847
3040.000000	100.986	-25.1684
3070.000000	101.001	-26.8207
3110.000000	100.997	-29.0210
3150.000000	100.964	-31.1757
3200.000000	100.886	-33.7440
3250.000000	100.774	-36.1647
3300.000000	100.637	-38.4490
3350.000000	100.478	-40.5916
3400.000000	100.299	-42.5997
3450.000000	100.106	-44.4708
3500.000000	99.902	-46.1809
3550.000000	99.685	-47.7125
3600.000000	99.458	-49.0555
3650.000000	99.222	-50.2246
3700.000000	98.979	-51.2066
3750.000000	98.732	-52.0011
3820.000000	98.382	-52.8256
3870.000000	98.131	-53.2255
3950.000000	97.737	-53.5427
4000.000000	97.501	-53.5432
4060.000000	97.229	-53.3850
4120.000000	96.974	-53.0734
4180.000000	96.735	-52.5957
4250.000000	96.480	-51.8426
4310.000000	96.281	-51.0681
4370.000000	96.098	-50.1831
4440.000000	95.912	-49.0488
4500.000000	95.782	-48.0585
4550.000000	95.695	-47.2467
4620.000000	95.605	-46.1588
4680.000000	95.550	-45.3153
4750.000000	95.501	-44.4669
4820.000000	95.459	-43.7568
4870.000000	95.429	-43.3218
4940.000000	95.383	-42.7917
5000.000000	95.340	-42.3835
5080.000000	95.274	-41.8871
5150.000000	95.204	-41.4716
5220.000000	95.124	-41.0165
5300.000000	95.027	-40.4048
5380.000000	94.936	-39.6719
5450.000000	94.863	-38.9540
5520.000000	94.801	-38.1935
5600.000000	94.741	-37.3045
5700.000000	94.678	-36.1831
5800.000000	94.629	-35.0476
5900.000000	94.593	-33.8771
6000.000000	94.570	-32.6784
6080.000000	94.563	-31.6912
6150.000000	94.569	-30.7969
6220.000000	94.585	-29.8736
6300.000000	94.621	-28.7803
6400.000000	94.691	-27.4043
6500.000000	94.782	-26.0812
6600.000000	94.867	-24.6358
6700.000000	95.022	-22.7234
6800.000000	95.313	-21.0968
6900.000000	95.665	-20.0562
7000.000000	96.039	-19.5196
7100.000000	96.378	-19.1589
7200.000000	96.768	-18.4764
7300.000000	97.279	-18.0856
7400.000000	97.860	-18.4232
7500.000000	98.481	-19.5566
7620.000000	99.266	-22.1362
7750.000000	100.091	-26.7726
7880.000000	100.697	-33.6314
8000.000000	100.934	-41.6789
8120.000000	100.787	-50.4159
8250.000000	100.192	-59.2642
8380.000000	99.237	-66.2934
8500.000000	98.168	-70.7571
8620.000000	97.026	-73.3960
8750.000000	95.789	-74.5314
8850.000000	94.871	-74.4322
9000.000000	93.589	-73.0984
9120.000000	92.653	-71.2592
9250.000000	91.732	-68.6735
9380.000000	90.906	-65.5964
9500.000000	90.225	-62.4301
9620.000000	89.617	-59.0541
9750.000000	89.035	-55.2287
9880.000000	88.535	-51.2740
10000.000000	88.136	-47.5476
10150.000000	87.710	-42.8639
10300.000000	87.367	-38.2621
10440.000000	87.117	-34.0519
10600.000000	86.904	-29.3698
10750.000000	86.765	-25.2008
10900.000000	86.670	-21.3155
11060.000000	86.593	-17.4880
11200.000000	86.533	-14.3545
11380.000000	86.474	-10.5520
11500.000000	86.448	-8.2113
11720.000000	86.373	-4.2899
11800.000000	86.330	-2.9219
12060.000000	86.133	1.7105
12200.000000	85.997	4.4673
12410.000000	85.774	9.1090
12500.000000	85.691	11.2798
12650.000000	85.590	15.0612
12800.000000	85.548	18.9663
13150.000000	85.712	28.0286
13200.000000	85.765	29.2733
13400.000000	86.048	34.0319
13600.000000	86.439	38.3491
13800.000000	86.942	42.0996
14000.000000	87.544	45.1516
14300.000000	88.602	48.1665
14500.000000	89.404	48.8418
14750.000000	90.491	47.5759
15000.000000	91.555	43.0276
15250.000000	92.331	34.3987
15500.000000	92.511	22.4672
15750.000000	91.895	10.1638
16000.000000	90.527	0.9039
16250.000000	88.682	-3.6722
16500.000000	86.650	-3.6537
16750.000000	84.598	0.7752
17000.000000	82.665	10.7950
17250.000000	81.737	27.5874
17500.000000	83.104	42.6345
17750.000000	84.513	43.1641
18000.000000	84.483	38.5346
18250.000000	83.928	39.2653
18500.000000	83.743	43.0619
18750.000000	83.943	45.8442
19000.000000	84.156	46.5663
19250.000000	84.230	46.3030
19500.000000	84.236	45.3487
19750.000000	84.209	43.4586
20000.000000	84.161	41.8401
