* Measurement data measured by REW V5.20.13
* Source: EXCL: Microphone(High Definition Audio Device), MICROPHONE (마스), R, volume: 1.000
* Format: 256k Log Swept Sine, 1 sweep at -12.0 dBFS with no timing reference
* Dated: 2023. 3. 26 오후 10:54:20
* REW Settings:
*  C-weighting compensation: Off
*  Target level: 75.0 dB
* Note: 
* Measurement: R
* Smoothing: 1/24 octave
* Frequency Step: 1/48 octave
* Start Frequency: 20.300 Hz
*
* Freq(Hz)	SPL(dB)	Phase(degrees)
20.299999	97.551	-0.2765
20.600000	97.538	-0.5186
20.900000	97.509	-0.9453
21.200001	97.475	-1.3370
21.400000	97.452	-1.5838
21.799999	97.404	-2.0821
22.000000	97.379	-2.3477
22.400000	97.329	-2.9190
22.700001	97.291	-3.3799
23.000000	97.250	-3.8605
23.299999	97.209	-4.3469
23.600000	97.169	-4.8287
24.000000	97.121	-5.4564
24.299999	97.091	-5.9192
24.700001	97.058	-6.5359
25.000000	97.037	-7.0013
25.400000	97.008	-7.6158
25.799999	96.977	-8.1955
26.200001	96.945	-8.7103
26.500000	96.922	-9.0471
26.900000	96.892	-9.4412
27.200001	96.872	-9.7137
27.600000	96.848	-10.0731
28.000000	96.823	-10.4484
28.500000	96.785	-10.9400
29.000000	96.735	-11.4273
29.500000	96.675	-11.8808
30.000000	96.611	-12.2945
30.400000	96.561	-12.6092
30.700001	96.526	-12.8452
31.100000	96.480	-13.1705
31.500000	96.436	-13.5132
32.000000	96.382	-13.9627
32.500000	96.328	-14.4207
33.000000	96.280	-14.8752
33.500000	96.238	-15.3309
34.000000	96.199	-15.7974
34.500000	96.156	-16.2609
35.000000	96.107	-16.6794
35.500000	96.056	-17.0131
36.000000	96.012	-17.2727
36.500000	95.976	-17.5148
37.000000	95.942	-17.7901
37.500000	95.902	-18.0931
38.200001	95.831	-18.4829
38.700001	95.778	-18.7211
39.500000	95.699	-19.1351
40.000000	95.647	-19.4369
40.599998	95.579	-19.7949
41.200001	95.512	-20.1170
41.799999	95.452	-20.4333
42.500000	95.387	-20.8184
43.099998	95.332	-21.1220
43.700001	95.281	-21.3785
44.400002	95.230	-21.6480
45.000000	95.188	-21.8761
45.500000	95.152	-22.0639
46.200001	95.099	-22.3199
46.799999	95.049	-22.5203
47.500000	94.991	-22.7158
48.200001	94.941	-22.9264
48.700001	94.907	-23.1311
49.400002	94.848	-23.4632
50.000000	94.790	-23.7055
50.799999	94.723	-23.9619
51.500000	94.673	-24.2168
52.200001	94.620	-24.4805
53.000000	94.560	-24.7038
53.799999	94.511	-24.9011
54.500000	94.467	-25.1065
55.200001	94.414	-25.2957
56.000000	94.350	-25.4405
57.000000	94.277	-25.5732
58.000000	94.208	-25.7842
59.000000	94.124	-26.0320
60.000000	94.037	-26.1751
60.799999	93.984	-26.2916
61.500000	93.942	-26.4588
62.200001	93.896	-26.6463
63.000000	93.839	-26.8184
64.000000	93.773	-26.9949
65.000000	93.705	-27.1402
66.000000	93.642	-27.1940
67.000000	93.595	-27.2539
68.000000	93.549	-27.3906
69.000000	93.494	-27.5429
70.000000	93.435	-27.6429
71.000000	93.382	-27.7248
72.000000	93.326	-27.8447
73.000000	93.257	-27.9501
74.000000	93.185	-27.9906
75.000000	93.121	-28.0248
76.199997	93.044	-28.1557
77.500000	92.955	-28.2704
78.800003	92.883	-28.3593
80.000000	92.825	-28.4610
81.199997	92.773	-28.5740
82.500000	92.703	-28.6870
83.800003	92.629	-28.6872
85.000000	92.567	-28.7299
86.199997	92.495	-28.8495
87.500000	92.405	-28.9964
88.500000	92.326	-29.0036
90.000000	92.257	-28.7192
91.199997	92.249	-28.7018
92.500000	92.218	-28.8362
93.800003	92.170	-28.8722
95.000000	92.127	-28.8823
96.199997	92.077	-28.9385
97.500000	92.011	-28.9801
98.800003	91.951	-28.9489
100.000000	91.907	-28.9635
101.500000	91.846	-29.0120
103.000000	91.783	-28.9715
104.400002	91.731	-28.9271
106.000000	91.666	-28.9004
107.500000	91.602	-28.8525
109.000000	91.543	-28.7617
110.599998	91.491	-28.6837
112.000000	91.445	-28.6654
113.800003	91.379	-28.6181
115.000000	91.340	-28.5770
117.199997	91.277	-28.6376
118.000000	91.248	-28.7101
120.599998	91.130	-28.6983
122.000000	91.090	-28.5563
124.099998	91.040	-28.4538
125.000000	91.012	-28.3962
126.500000	90.966	-28.2631
128.000000	90.920	-28.1365
131.500000	90.815	-28.0218
132.000000	90.799	-28.0183
134.000000	90.731	-27.9576
136.000000	90.663	-27.7250
138.000000	90.604	-27.4857
140.000000	90.527	-27.3866
143.000000	90.393	-27.2585
145.000000	90.312	-27.1132
147.500000	90.207	-26.6897
150.000000	90.095	-26.0951
152.500000	89.970	-25.5398
155.000000	89.837	-24.7956
157.500000	89.733	-23.4492
160.000000	89.704	-21.5629
162.500000	89.800	-19.5623
165.000000	90.058	-18.0666
167.500000	90.395	-17.7514
170.000000	90.653	-18.5674
172.500000	90.780	-19.8771
175.000000	90.814	-21.0800
177.500000	90.797	-22.0629
180.000000	90.721	-22.7837
182.500000	90.633	-23.1748
185.000000	90.580	-23.4849
187.500000	90.528	-23.7769
190.000000	90.463	-23.8959
192.500000	90.408	-23.9085
195.000000	90.369	-23.9440
197.500000	90.326	-23.9857
200.000000	90.273	-23.9759
203.000000	90.211	-23.9789
206.000000	90.160	-23.9729
209.000000	90.125	-23.9234
212.000000	90.081	-23.8970
214.000000	90.049	-23.9105
218.000000	89.985	-24.0013
220.000000	89.951	-23.9891
224.000000	89.901	-23.7546
227.000000	89.876	-23.5889
230.000000	89.839	-23.5077
233.000000	89.799	-23.4276
236.000000	89.773	-23.3182
240.000000	89.732	-23.1663
243.000000	89.691	-23.0353
247.000000	89.653	-22.9243
250.000000	89.627	-22.8639
254.000000	89.583	-22.6796
258.000000	89.545	-22.4394
262.000000	89.533	-22.2919
265.000000	89.520	-22.1987
269.000000	89.497	-22.0688
272.000000	89.484	-22.0700
276.000000	89.460	-22.0542
280.000000	89.424	-21.8977
285.000000	89.378	-21.6818
290.000000	89.346	-21.6039
295.000000	89.307	-21.4860
300.000000	89.267	-21.3453
304.000000	89.249	-21.3111
307.000000	89.232	-21.2873
311.000000	89.206	-21.1670
315.000000	89.190	-20.9847
320.000000	89.174	-20.8092
325.000000	89.144	-20.6189
330.000000	89.125	-20.3408
335.000000	89.099	-20.0876
340.000000	89.065	-19.9017
345.000000	89.036	-19.6789
350.000000	89.018	-19.4016
355.000000	89.014	-19.0876
360.000000	89.015	-18.9115
365.000000	89.012	-18.7855
370.000000	89.004	-18.6188
375.000000	89.003	-18.6050
382.000000	88.996	-18.6559
387.000000	88.975	-18.5845
395.000000	88.944	-18.5154
400.000000	88.929	-18.4840
406.000000	88.903	-18.4377
412.000000	88.870	-18.3659
418.000000	88.837	-18.2031
425.000000	88.791	-17.9395
431.000000	88.763	-17.7373
437.000000	88.739	-17.5484
444.000000	88.710	-17.4836
450.000000	88.700	-17.4315
455.000000	88.693	-17.3591
462.000000	88.663	-17.2502
468.000000	88.637	-17.0793
475.000000	88.619	-16.8178
482.000000	88.600	-16.6171
487.000000	88.583	-16.4546
494.000000	88.563	-16.2581
500.000000	88.547	-16.1468
508.000000	88.519	-15.9634
515.000000	88.495	-15.6977
522.000000	88.462	-15.3269
530.000000	88.441	-14.9479
538.000000	88.435	-14.7308
545.000000	88.416	-14.5587
552.000000	88.397	-14.3966
560.000000	88.383	-14.2429
570.000000	88.384	-13.9157
580.000000	88.393	-13.5336
590.000000	88.380	-13.1937
600.000000	88.358	-12.9185
608.000000	88.344	-12.6905
615.000000	88.328	-12.4699
622.000000	88.309	-12.2273
630.000000	88.290	-11.8974
640.000000	88.271	-11.4940
650.000000	88.249	-11.1803
660.000000	88.236	-10.9179
670.000000	88.227	-10.5042
680.000000	88.217	-10.1146
690.000000	88.217	-9.7183
700.000000	88.217	-9.3186
710.000000	88.213	-8.9565
720.000000	88.207	-8.5508
730.000000	88.212	-8.0545
740.000000	88.216	-7.6099
750.000000	88.216	-7.2444
762.000000	88.232	-6.7051
775.000000	88.241	-6.0989
788.000000	88.234	-5.5805
800.000000	88.242	-5.1128
812.000000	88.273	-4.5412
825.000000	88.319	-3.8565
838.000000	88.354	-3.2935
850.000000	88.389	-2.8779
862.000000	88.427	-2.4774
875.000000	88.462	-1.9287
885.000000	88.495	-1.4903
900.000000	88.556	-0.8787
912.000000	88.608	-0.4268
925.000000	88.672	0.0059
938.000000	88.750	0.3794
950.000000	88.830	0.7147
962.000000	88.899	1.0802
975.000000	88.967	1.4631
988.000000	89.054	1.7723
1000.000000	89.129	2.0108
1015.000000	89.220	2.2278
1030.000000	89.313	2.4400
1044.000000	89.399	2.5716
1060.000000	89.496	2.6204
1075.000000	89.590	2.6937
1090.000000	89.683	2.8137
1106.000000	89.782	2.8463
1120.000000	89.875	2.7766
1138.000000	89.997	2.7286
1150.000000	90.068	2.6879
1172.000000	90.192	2.5028
1180.000000	90.236	2.4180
1206.000000	90.369	2.1727
1220.000000	90.434	2.0559
1241.000000	90.538	1.8299
1250.000000	90.581	1.7353
1265.000000	90.647	1.5904
1280.000000	90.705	1.4342
1315.000000	90.837	1.0636
1320.000000	90.855	1.0189
1340.000000	90.920	0.8569
1360.000000	90.974	0.6825
1380.000000	91.030	0.5179
1400.000000	91.093	0.3825
1430.000000	91.176	0.2133
1450.000000	91.234	0.1184
1475.000000	91.302	0.0585
1500.000000	91.367	-0.0334
1525.000000	91.437	-0.1582
1550.000000	91.507	-0.1583
1575.000000	91.574	-0.1455
1600.000000	91.646	-0.1392
1625.000000	91.720	-0.1382
1650.000000	91.794	-0.1365
1675.000000	91.867	-0.0947
1700.000000	91.941	-0.0546
1725.000000	92.020	-0.0136
1750.000000	92.101	0.0525
1775.000000	92.178	0.1281
1800.000000	92.258	0.1858
1825.000000	92.345	0.2201
1850.000000	92.439	0.2583
1875.000000	92.532	0.2960
1900.000000	92.621	0.3386
1925.000000	92.715	0.4029
1950.000000	92.813	0.4775
1975.000000	92.916	0.5143
2000.000000	93.019	0.5268
2030.000000	93.145	0.5267
2060.000000	93.277	0.5070
2090.000000	93.408	0.4944
2120.000000	93.548	0.4934
2140.000000	93.644	0.4579
2180.000000	93.840	0.3028
2200.000000	93.940	0.2192
2240.000000	94.143	0.0251
2270.000000	94.301	-0.1731
2300.000000	94.463	-0.3958
2330.000000	94.624	-0.6421
2360.000000	94.789	-0.9570
2400.000000	95.016	-1.4410
2430.000000	95.188	-1.8664
2470.000000	95.418	-2.5376
2500.000000	95.594	-3.0936
2540.000000	95.827	-3.9029
2580.000000	96.060	-4.8301
2620.000000	96.293	-5.8935
2650.000000	96.465	-6.7810
2690.000000	96.688	-8.0731
2720.000000	96.849	-9.1165
2760.000000	97.056	-10.6225
2800.000000	97.249	-12.2413
2850.000000	97.469	-14.4412
2900.000000	97.659	-16.8504
2950.000000	97.811	-19.4348
3000.000000	97.922	-22.1565
3040.000000	97.978	-24.3860
3070.000000	98.000	-26.0681
3110.000000	98.001	-28.2961
3150.000000	97.971	-30.4746
3200.000000	97.894	-33.0890
3250.000000	97.784	-35.5558
3300.000000	97.648	-37.8601
3350.000000	97.488	-40.0056
3400.000000	97.308	-41.9965
3450.000000	97.118	-43.8251
3500.000000	96.919	-45.4828
3550.000000	96.710	-46.9778
3600.000000	96.491	-48.3000
3650.000000	96.265	-49.4434
3700.000000	96.033	-50.4210
3750.000000	95.798	-51.2371
3820.000000	95.465	-52.0880
3870.000000	95.229	-52.5044
3950.000000	94.857	-52.8608
4000.000000	94.631	-52.9009
4060.000000	94.374	-52.7762
4120.000000	94.134	-52.4890
4180.000000	93.910	-52.0748
4250.000000	93.668	-51.4594
4310.000000	93.481	-50.8058
4370.000000	93.309	-50.0812
4440.000000	93.128	-49.1770
4500.000000	92.994	-48.3700
4550.000000	92.896	-47.6919
4620.000000	92.778	-46.7257
4680.000000	92.693	-45.8963
4750.000000	92.616	-44.9474
4820.000000	92.557	-44.0416
4870.000000	92.525	-43.4445
4940.000000	92.492	-42.7151
5000.000000	92.471	-42.1818
5080.000000	92.444	-41.5624
5150.000000	92.416	-41.1114
5220.000000	92.383	-40.7084
5300.000000	92.342	-40.2621
5380.000000	92.294	-39.8148
5450.000000	92.247	-39.4067
5520.000000	92.197	-38.9797
5600.000000	92.139	-38.4326
5700.000000	92.075	-37.6863
5800.000000	92.023	-36.8743
5900.000000	91.985	-36.0308
6000.000000	91.958	-35.2061
6080.000000	91.944	-34.5740
6150.000000	91.932	-34.0370
6220.000000	91.916	-33.4843
6300.000000	91.896	-32.7942
6400.000000	91.877	-31.8027
6500.000000	91.881	-30.7055
6600.000000	91.884	-29.6843
6700.000000	91.838	-28.1268
6800.000000	91.921	-25.7728
6900.000000	92.165	-23.6302
7000.000000	92.531	-21.7225
7100.000000	93.033	-20.3909
7200.000000	93.540	-20.0862
7300.000000	94.020	-20.1439
7400.000000	94.545	-20.4627
7500.000000	95.125	-21.3866
7620.000000	95.872	-23.6660
7750.000000	96.662	-27.8992
7880.000000	97.247	-34.2357
8000.000000	97.490	-41.7227
8120.000000	97.375	-49.9631
8250.000000	96.834	-58.4435
8380.000000	95.939	-65.3250
8500.000000	94.910	-69.7776
8620.000000	93.791	-72.4076
8750.000000	92.567	-73.4814
8850.000000	91.658	-73.2927
9000.000000	90.390	-71.7726
9120.000000	89.469	-69.7510
9250.000000	88.569	-66.9674
9380.000000	87.765	-63.7008
9500.000000	87.106	-60.3590
9620.000000	86.529	-56.7931
9750.000000	85.994	-52.7918
9880.000000	85.544	-48.7420
10000.000000	85.190	-44.9771
10150.000000	84.820	-40.2669
10300.000000	84.539	-35.6301
10440.000000	84.345	-31.4496
10600.000000	84.191	-26.8686
10750.000000	84.106	-22.8275
10900.000000	84.067	-19.1345
11060.000000	84.053	-15.6200
11200.000000	84.039	-12.8709
11380.000000	84.011	-9.6441
11500.000000	83.985	-7.6896
11720.000000	83.887	-4.3869
11800.000000	83.829	-3.1945
12060.000000	83.564	1.0453
12200.000000	83.391	3.7010
12410.000000	83.128	8.3223
12500.000000	83.034	10.5001
12650.000000	82.929	14.2681
12800.000000	82.891	18.1061
13150.000000	83.042	26.8368
13200.000000	83.089	28.0344
13400.000000	83.339	32.6309
13600.000000	83.695	36.7847
13800.000000	84.155	40.3241
14000.000000	84.696	43.1509
14300.000000	85.615	45.9042
14500.000000	86.280	46.5593
14750.000000	87.145	45.6959
15000.000000	87.975	42.5276
15250.000000	88.624	36.5809
15500.000000	88.916	28.0652
15750.000000	88.667	18.4262
16000.000000	87.800	9.9669
16250.000000	86.436	4.6006
16500.000000	84.779	3.0786
16750.000000	83.002	5.7138
17000.000000	81.287	13.7223
17250.000000	80.500	28.3624
17500.000000	81.918	41.8048
17750.000000	83.442	41.1691
18000.000000	83.591	34.5646
18250.000000	83.216	32.0006
18500.000000	83.043	31.1050
18750.000000	82.914	28.6353
19000.000000	82.472	25.2549
19250.000000	81.719	22.7921
19500.000000	80.823	21.2217
19750.000000	79.898	20.0305
20000.000000	79.260	19.4302
