* Measurement data measured by REW V5.20.9
* Source: Mic in at rear panel (Pink)(Realtek(R) Audio), MICROPHONE (마스), R, volume: 0.250
* Format: 256k Log Swept Sine, 1 sweep at -12.0 dBFS with no timing reference
* Dated: 2022. 9. 16 오후 9:34:52
* REW Settings:
*  C-weighting compensation: Off
*  Target level: 75.0 dB
* Note: 
* Measurement: R
* Smoothing: 1/24 octave
* Frequency Step: 1/48 octave
* Start Frequency: 20.300 Hz
*
* Freq(Hz)	SPL(dB)	Phase(degrees)
20.299999	72.615	-147.5413
20.600000	72.630	-147.8263
20.900000	72.658	-148.3439
21.200001	72.683	-148.8637
21.400000	72.695	-149.2180
21.799999	72.708	-149.9548
22.000000	72.708	-150.3295
22.400000	72.700	-151.0477
22.700001	72.693	-151.5471
23.000000	72.691	-152.0302
23.299999	72.696	-152.5262
23.600000	72.706	-153.0551
24.000000	72.724	-153.8213
24.299999	72.736	-154.4260
24.700001	72.749	-155.2355
25.000000	72.757	-155.8211
25.400000	72.767	-156.5570
25.799999	72.780	-157.2386
26.200001	72.796	-157.8689
26.500000	72.811	-158.3122
26.900000	72.834	-158.8782
27.200001	72.853	-159.3021
27.600000	72.879	-159.8928
28.000000	72.900	-160.5253
28.500000	72.907	-161.3331
29.000000	72.894	-162.0544
29.500000	72.874	-162.6243
30.000000	72.866	-163.1006
30.400000	72.871	-163.5009
30.700001	72.876	-163.8414
31.100000	72.878	-164.3393
31.500000	72.871	-164.8430
32.000000	72.856	-165.4109
32.500000	72.847	-165.9084
33.000000	72.852	-166.4166
33.500000	72.864	-166.9957
34.000000	72.869	-167.6171
34.500000	72.865	-168.2013
35.000000	72.859	-168.7117
35.500000	72.860	-169.1798
36.000000	72.865	-169.6557
36.500000	72.868	-170.1522
37.000000	72.864	-170.6427
37.500000	72.855	-171.0975
38.200001	72.840	-171.6670
38.700001	72.832	-172.0558
39.500000	72.821	-172.7190
40.000000	72.812	-173.1589
40.599998	72.796	-173.6783
41.200001	72.783	-174.1797
41.799999	72.773	-174.7009
42.500000	72.757	-175.3478
43.099998	72.735	-175.8561
43.700001	72.714	-176.2512
44.400002	72.708	-176.6262
45.000000	72.720	-176.9968
45.500000	72.729	-177.3819
46.200001	72.726	-177.9798
46.799999	72.708	-178.4616
47.500000	72.682	-178.9547
48.200001	72.654	-179.4123
48.700001	72.630	-179.7150
49.400002	72.598	179.9393
50.000000	72.583	179.6945
50.799999	72.587	179.2693
51.500000	72.586	178.7255
52.200001	72.564	178.1519
53.000000	72.527	177.6332
53.799999	72.501	177.2287
54.500000	72.488	176.8713
55.200001	72.477	176.4787
56.000000	72.459	176.0095
57.000000	72.426	175.4529
58.000000	72.389	174.9521
59.000000	72.350	174.4994
60.000000	72.314	174.0764
60.799999	72.291	173.7173
61.500000	72.273	173.3658
62.200001	72.251	172.9896
63.000000	72.217	172.5830
64.000000	72.175	172.1678
65.000000	72.143	171.7782
66.000000	72.113	171.3489
67.000000	72.077	170.9202
68.000000	72.038	170.5061
69.000000	71.995	170.0998
70.000000	71.949	169.7128
71.000000	71.899	169.3629
72.000000	71.851	169.0583
73.000000	71.807	168.7699
74.000000	71.762	168.4689
75.000000	71.713	168.1776
76.199997	71.649	167.8753
77.500000	71.581	167.6069
78.800003	71.510	167.4016
80.000000	71.450	167.3724
81.199997	71.423	167.4046
82.500000	71.414	167.3037
83.800003	71.406	167.1256
85.000000	71.400	166.9239
86.199997	71.395	166.7150
87.500000	71.397	166.4475
88.500000	71.394	166.1757
90.000000	71.378	165.7556
91.199997	71.362	165.4127
92.500000	71.340	165.0206
93.800003	71.313	164.6447
95.000000	71.287	164.3134
96.199997	71.258	163.9940
97.500000	71.225	163.6602
98.800003	71.189	163.3062
100.000000	71.149	162.9812
101.500000	71.098	162.6062
103.000000	71.052	162.2366
104.400002	71.008	161.9165
106.000000	70.958	161.6039
107.500000	70.909	161.3197
109.000000	70.854	161.0298
110.599998	70.795	160.6970
112.000000	70.746	160.3998
113.800003	70.692	160.0781
115.000000	70.658	159.9235
117.199997	70.579	159.8352
118.000000	70.548	159.8789
120.599998	70.483	159.7806
122.000000	70.429	159.3683
124.099998	70.325	158.8560
125.000000	70.288	158.7022
126.500000	70.235	158.5115
128.000000	70.185	158.3891
131.500000	70.049	158.2882
132.000000	70.028	158.2887
134.000000	69.949	158.3355
136.000000	69.882	158.4772
138.000000	69.831	158.7122
140.000000	69.803	158.9909
143.000000	69.812	159.2298
145.000000	69.831	159.1616
147.500000	69.845	158.8550
150.000000	69.833	158.4117
152.500000	69.798	157.9848
155.000000	69.750	157.6220
157.500000	69.695	157.3005
160.000000	69.635	157.0269
162.500000	69.575	156.8083
165.000000	69.512	156.6299
167.500000	69.448	156.4876
170.000000	69.387	156.3534
172.500000	69.326	156.2258
175.000000	69.266	156.1084
177.500000	69.206	156.0115
180.000000	69.149	155.9251
182.500000	69.092	155.8470
185.000000	69.035	155.7895
187.500000	68.981	155.7371
190.000000	68.926	155.6996
192.500000	68.875	155.6717
195.000000	68.826	155.6444
197.500000	68.780	155.6339
200.000000	68.734	155.6281
203.000000	68.681	155.6159
206.000000	68.630	155.5826
209.000000	68.578	155.5572
212.000000	68.525	155.5555
214.000000	68.490	155.5588
218.000000	68.418	155.5731
220.000000	68.381	155.5876
224.000000	68.317	155.6238
227.000000	68.277	155.6567
230.000000	68.233	155.7108
233.000000	68.186	155.7790
236.000000	68.137	155.8490
240.000000	68.075	155.9129
243.000000	68.030	155.9437
247.000000	67.971	156.0146
250.000000	67.928	156.0939
254.000000	67.872	156.1996
258.000000	67.814	156.2899
262.000000	67.755	156.3889
265.000000	67.712	156.4622
269.000000	67.661	156.5669
272.000000	67.627	156.6548
276.000000	67.580	156.7744
280.000000	67.533	156.8903
285.000000	67.478	157.0474
290.000000	67.430	157.2177
295.000000	67.383	157.3823
300.000000	67.337	157.5630
304.000000	67.299	157.7216
307.000000	67.270	157.8394
311.000000	67.232	157.9858
315.000000	67.198	158.1290
320.000000	67.157	158.3173
325.000000	67.117	158.5057
330.000000	67.079	158.6937
335.000000	67.042	158.8763
340.000000	67.004	159.0753
345.000000	66.965	159.2986
350.000000	66.926	159.5076
355.000000	66.887	159.7206
360.000000	66.848	159.9419
365.000000	66.813	160.1393
370.000000	66.778	160.3381
375.000000	66.745	160.5520
382.000000	66.701	160.8627
387.000000	66.666	161.0881
395.000000	66.610	161.4173
400.000000	66.579	161.6333
406.000000	66.544	161.8975
412.000000	66.508	162.1597
418.000000	66.472	162.4283
425.000000	66.431	162.7869
431.000000	66.398	163.0733
437.000000	66.373	163.3018
444.000000	66.348	163.5831
450.000000	66.328	163.8685
455.000000	66.312	164.1130
462.000000	66.285	164.4562
468.000000	66.264	164.7393
475.000000	66.243	165.0457
482.000000	66.221	165.3503
487.000000	66.206	165.5734
494.000000	66.186	165.8956
500.000000	66.169	166.1674
508.000000	66.151	166.5374
515.000000	66.138	166.8638
522.000000	66.123	167.1969
530.000000	66.104	167.5707
538.000000	66.087	167.9258
545.000000	66.074	168.2415
552.000000	66.063	168.5752
560.000000	66.053	168.9510
570.000000	66.041	169.4244
580.000000	66.029	169.8947
590.000000	66.020	170.3770
600.000000	66.012	170.8734
608.000000	66.004	171.2536
615.000000	66.000	171.5767
622.000000	65.998	171.9001
630.000000	65.995	172.2778
640.000000	65.993	172.7638
650.000000	65.992	173.2535
660.000000	65.994	173.7536
670.000000	65.999	174.2324
680.000000	66.003	174.6982
690.000000	66.008	175.1718
700.000000	66.015	175.6458
710.000000	66.023	176.1208
720.000000	66.034	176.5961
730.000000	66.047	177.0710
740.000000	66.062	177.5425
750.000000	66.077	178.0214
762.000000	66.098	178.6148
775.000000	66.124	179.2434
788.000000	66.152	179.8459
800.000000	66.177	-179.5925
812.000000	66.204	-179.0410
825.000000	66.237	-178.4457
838.000000	66.274	-177.8429
850.000000	66.311	-177.2840
862.000000	66.351	-176.7217
875.000000	66.400	-176.1041
885.000000	66.440	-175.6339
900.000000	66.502	-174.9533
912.000000	66.557	-174.4185
925.000000	66.621	-173.8473
938.000000	66.690	-173.2881
950.000000	66.756	-172.7859
962.000000	66.826	-172.3104
975.000000	66.903	-171.8373
988.000000	66.982	-171.4061
1000.000000	67.056	-171.0269
1015.000000	67.155	-170.5634
1030.000000	67.255	-170.1396
1044.000000	67.349	-169.7758
1060.000000	67.455	-169.3902
1075.000000	67.555	-169.0496
1090.000000	67.657	-168.7189
1106.000000	67.772	-168.3848
1120.000000	67.876	-168.1143
1138.000000	68.014	-167.8151
1150.000000	68.106	-167.6382
1172.000000	68.270	-167.3232
1180.000000	68.330	-167.2178
1206.000000	68.527	-166.9371
1220.000000	68.633	-166.8136
1241.000000	68.791	-166.6489
1250.000000	68.857	-166.5870
1265.000000	68.965	-166.4940
1280.000000	69.074	-166.4086
1315.000000	69.324	-166.2409
1320.000000	69.360	-166.2225
1340.000000	69.498	-166.1563
1360.000000	69.630	-166.0961
1380.000000	69.764	-166.0450
1400.000000	69.903	-166.0028
1430.000000	70.114	-165.9602
1450.000000	70.254	-165.9447
1475.000000	70.429	-165.9327
1500.000000	70.604	-165.9304
1525.000000	70.780	-165.9367
1550.000000	70.958	-165.9558
1575.000000	71.140	-165.9858
1600.000000	71.323	-166.0185
1625.000000	71.510	-166.0414
1650.000000	71.707	-166.0725
1675.000000	71.915	-166.1336
1700.000000	72.135	-166.2699
1725.000000	72.359	-166.5242
1750.000000	72.583	-166.8873
1775.000000	72.803	-167.3434
1800.000000	73.017	-167.8687
1825.000000	73.226	-168.4485
1850.000000	73.433	-169.0734
1875.000000	73.638	-169.7531
1900.000000	73.842	-170.4938
1925.000000	74.043	-171.2972
1950.000000	74.241	-172.1705
1975.000000	74.434	-173.1147
2000.000000	74.622	-174.1287
2030.000000	74.841	-175.4370
2060.000000	75.048	-176.8441
2090.000000	75.244	-178.3513
2120.000000	75.427	-179.9524
2140.000000	75.541	178.9236
2180.000000	75.747	176.5350
2200.000000	75.834	175.2791
2240.000000	75.976	172.6680
2270.000000	76.052	170.6535
2300.000000	76.100	168.6207
2330.000000	76.121	166.5956
2360.000000	76.116	164.6007
2400.000000	76.071	162.0207
2430.000000	76.011	160.1686
2470.000000	75.899	157.8406
2500.000000	75.793	156.2184
2540.000000	75.628	154.2349
2580.000000	75.441	152.4713
2620.000000	75.237	150.9361
2650.000000	75.076	149.9366
2690.000000	74.857	148.7913
2720.000000	74.690	148.0592
2760.000000	74.465	147.2445
2800.000000	74.240	146.6137
2850.000000	73.958	146.0799
2900.000000	73.680	145.8248
2950.000000	73.413	145.8452
3000.000000	73.163	146.1308
3040.000000	72.979	146.5535
3070.000000	72.855	146.9795
3110.000000	72.716	147.6573
3150.000000	72.607	148.3968
3200.000000	72.510	149.2883
3250.000000	72.439	150.0618
3300.000000	72.376	150.7495
3350.000000	72.316	151.4312
3400.000000	72.265	152.1497
3450.000000	72.227	152.8935
3500.000000	72.201	153.6426
3550.000000	72.183	154.4056
3600.000000	72.170	155.2121
3650.000000	72.161	156.0866
3700.000000	72.161	157.0366
3750.000000	72.174	158.0582
3820.000000	72.219	159.6071
3870.000000	72.271	160.7671
3950.000000	72.392	162.6158
4000.000000	72.492	163.7440
4060.000000	72.634	165.0657
4120.000000	72.798	166.3502
4180.000000	72.986	167.5860
4250.000000	73.236	168.9772
4310.000000	73.475	170.1185
4370.000000	73.736	171.1888
4440.000000	74.078	172.3123
4500.000000	74.413	173.1115
4550.000000	74.720	173.6118
4620.000000	75.193	173.9898
4680.000000	75.631	173.9587
4750.000000	76.174	173.4395
4820.000000	76.742	172.3108
4870.000000	77.155	171.0695
4940.000000	77.724	168.6219
5000.000000	78.182	165.7947
5080.000000	78.702	160.9535
5150.000000	79.024	155.8155
5220.000000	79.180	150.0905
5300.000000	79.127	143.3054
5380.000000	78.830	136.8553
5450.000000	78.401	131.8952
5520.000000	77.853	127.7977
5600.000000	77.138	124.2592
5700.000000	76.192	121.4618
5800.000000	75.259	120.2014
5900.000000	74.385	120.1615
6000.000000	73.592	121.0648
6080.000000	73.024	122.2964
6150.000000	72.576	123.6707
6220.000000	72.174	125.2746
6300.000000	71.768	127.3409
6400.000000	71.341	130.2150
6500.000000	71.000	133.3434
6600.000000	70.748	136.6592
6700.000000	70.589	140.0902
6800.000000	70.530	143.5717
6900.000000	70.587	147.0320
7000.000000	70.764	150.3984
7100.000000	71.052	153.6033
7200.000000	71.458	156.5397
7300.000000	71.989	159.0479
7400.000000	72.651	160.9222
7500.000000	73.457	161.9011
7620.000000	74.621	161.2927
7750.000000	76.009	157.1905
7880.000000	77.156	147.9763
8000.000000	77.601	134.9645
8120.000000	77.181	120.5023
8250.000000	75.804	107.8352
8380.000000	73.867	100.6123
8500.000000	71.966	98.1997
8620.000000	70.166	98.6199
8750.000000	68.404	101.1505
8850.000000	67.188	104.0685
9000.000000	65.571	109.5147
9120.000000	64.431	114.5475
9250.000000	63.328	120.5640
9380.000000	62.349	127.0942
9500.000000	61.544	133.5373
9620.000000	60.832	140.4014
9750.000000	60.175	148.3214
9880.000000	59.656	156.7596
10000.000000	59.326	164.9370
10150.000000	59.150	175.3904
10300.000000	59.270	-174.4164
10440.000000	59.625	-165.7215
10600.000000	60.212	-157.3169
10750.000000	60.809	-150.9628
10900.000000	61.362	-145.6775
11060.000000	61.889	-140.6331
11200.000000	62.330	-136.3228
11380.000000	62.941	-130.7133
11500.000000	63.414	-126.9738
11720.000000	64.496	-120.4598
11800.000000	64.976	-118.3370
12060.000000	66.892	-113.3972
12200.000000	68.116	-112.8453
12410.000000	69.959	-116.8105
12500.000000	70.623	-120.7403
12650.000000	71.347	-130.1050
12800.000000	71.429	-141.2858
13150.000000	69.352	-159.7272
13200.000000	68.914	-160.7896
13400.000000	67.165	-161.7290
13600.000000	65.654	-159.0056
13800.000000	64.500	-154.2806
14000.000000	63.699	-148.5288
14300.000000	63.062	-139.2435
14500.000000	62.979	-133.1645
14750.000000	63.257	-126.3183
15000.000000	63.938	-121.1241
15250.000000	64.980	-118.6446
15500.000000	66.274	-120.1420
15750.000000	67.516	-126.7184
16000.000000	68.319	-138.2412
16250.000000	68.469	-152.9931
16500.000000	67.956	-169.3267
16750.000000	66.754	173.5372
17000.000000	64.716	157.4761
17250.000000	61.799	146.0600
17500.000000	58.261	141.4339
17750.000000	54.521	142.8796
18000.000000	50.923	148.6065
18250.000000	47.610	157.1601
18500.000000	44.591	167.5754
18750.000000	41.843	179.2384
19000.000000	39.323	-168.0879
19250.000000	36.990	-154.4714
19500.000000	34.790	-139.9803
19750.000000	32.715	-124.2651
20000.000000	30.735	-107.6995
