* Measurement data measured by REW V5.20.13
* Source: EXCL: Mic in at rear panel (Pink)(Realtek(R) Audio), MICROPHONE (마스), L, volume: 1.000
* Format: 256k Log Swept Sine, 1 sweep at -12.0 dBFS with no timing reference
* Dated: 2022. 12. 27 오후 11:21:03
* REW Settings:
*  C-weighting compensation: Off
*  Target level: 75.0 dB
* Note: 
* Measurement: R_Gray
* Smoothing: 1/24 octave
* Frequency Step: 1/48 octave
* Start Frequency: 20.300 Hz
*
* Freq(Hz)	SPL(dB)	Phase(degrees)
20.299999	90.917	-164.9156
20.600000	90.934	-165.1319
20.900000	90.963	-165.5270
21.200001	90.981	-165.9229
21.400000	90.987	-166.1808
21.799999	90.990	-166.6902
22.000000	90.990	-166.9453
22.400000	90.989	-167.4610
22.700001	90.989	-167.8626
23.000000	90.989	-168.2845
23.299999	90.989	-168.7234
23.600000	90.990	-169.1726
24.000000	90.995	-169.7784
24.299999	91.002	-170.2354
24.700001	91.015	-170.8504
25.000000	91.024	-171.3149
25.400000	91.034	-171.9278
25.799999	91.041	-172.5114
26.200001	91.047	-173.0466
26.500000	91.053	-173.4145
26.900000	91.062	-173.8712
27.200001	91.068	-174.2018
27.600000	91.076	-174.6428
28.000000	91.080	-175.0886
28.500000	91.075	-175.6343
29.000000	91.062	-176.1409
29.500000	91.045	-176.6088
30.000000	91.029	-177.0652
30.400000	91.018	-177.4366
30.700001	91.009	-177.7178
31.100000	90.996	-178.0883
31.500000	90.986	-178.4503
32.000000	90.979	-178.9083
32.500000	90.980	-179.4188
33.000000	90.978	179.9904
33.500000	90.966	179.3645
34.000000	90.944	178.8019
34.500000	90.919	178.3591
35.000000	90.902	178.0045
35.500000	90.897	177.6614
36.000000	90.897	177.2818
36.500000	90.896	176.8661
37.000000	90.888	176.4401
37.500000	90.872	176.0258
38.200001	90.841	175.4767
38.700001	90.815	175.1020
39.500000	90.769	174.5268
40.000000	90.742	174.1797
40.599998	90.714	173.7624
41.200001	90.688	173.3253
41.799999	90.662	172.8752
42.500000	90.634	172.3774
43.099998	90.618	171.9789
43.700001	90.608	171.5597
44.400002	90.590	171.0314
45.000000	90.564	170.6082
45.500000	90.540	170.3030
46.200001	90.507	169.9091
46.799999	90.474	169.5906
47.500000	90.433	169.3010
48.200001	90.407	169.0584
48.700001	90.397	168.8245
49.400002	90.377	168.3796
50.000000	90.343	167.9931
50.799999	90.295	167.5807
51.500000	90.264	167.2468
52.200001	90.239	166.8852
53.000000	90.212	166.4660
53.799999	90.187	166.0317
54.500000	90.160	165.6407
55.200001	90.130	165.2746
56.000000	90.093	164.8770
57.000000	90.037	164.3908
58.000000	89.969	163.9748
59.000000	89.901	163.6101
60.000000	89.831	163.2570
60.799999	89.775	162.9903
61.500000	89.732	162.7879
62.200001	89.702	162.5758
63.000000	89.672	162.2490
64.000000	89.622	161.8352
65.000000	89.582	161.5546
66.000000	89.564	161.2028
67.000000	89.537	160.7643
68.000000	89.496	160.3469
69.000000	89.443	159.9670
70.000000	89.381	159.6234
71.000000	89.313	159.3165
72.000000	89.246	159.0498
73.000000	89.183	158.7769
74.000000	89.121	158.5041
75.000000	89.061	158.2708
76.199997	88.999	158.0339
77.500000	88.940	157.8090
78.800003	88.890	157.5656
80.000000	88.837	157.2661
81.199997	88.760	156.9478
82.500000	88.666	156.7251
83.800003	88.589	156.5690
85.000000	88.531	156.3828
86.199997	88.477	156.1528
87.500000	88.416	155.9153
88.500000	88.368	155.7720
90.000000	88.304	155.5354
91.199997	88.245	155.3021
92.500000	88.176	155.0797
93.800003	88.106	154.9118
95.000000	88.049	154.8086
96.199997	88.004	154.6766
97.500000	87.954	154.4826
98.800003	87.898	154.2845
100.000000	87.842	154.1339
101.500000	87.772	154.0138
103.000000	87.707	153.9245
104.400002	87.658	153.8289
106.000000	87.599	153.6253
107.500000	87.525	153.4959
109.000000	87.461	153.5570
110.599998	87.409	153.6565
112.000000	87.362	153.7376
113.800003	87.280	153.7849
115.000000	87.209	153.8264
117.199997	87.077	153.7996
118.000000	87.028	153.6972
120.599998	86.855	153.4322
122.000000	86.802	153.4442
124.099998	86.762	153.4837
125.000000	86.748	153.5901
126.500000	86.726	153.8763
128.000000	86.694	154.2662
131.500000	86.569	155.1334
132.000000	86.550	155.2133
134.000000	86.508	155.4033
136.000000	86.556	155.2293
138.000000	86.629	154.8107
140.000000	86.669	154.6191
143.000000	86.621	154.5839
145.000000	86.526	154.4400
147.500000	86.417	154.0916
150.000000	86.341	153.7834
152.500000	86.270	153.7658
155.000000	86.204	153.9030
157.500000	86.153	154.0931
160.000000	86.120	154.3440
162.500000	86.090	154.4817
165.000000	86.061	154.4366
167.500000	86.047	154.3199
170.000000	86.036	154.1720
172.500000	85.997	153.9439
175.000000	85.942	153.6619
177.500000	85.887	153.4459
180.000000	85.830	153.3430
182.500000	85.763	153.2742
185.000000	85.691	153.1974
187.500000	85.623	153.1667
190.000000	85.563	153.1895
192.500000	85.507	153.2166
195.000000	85.452	153.2355
197.500000	85.394	153.2732
200.000000	85.336	153.3446
203.000000	85.274	153.4206
206.000000	85.219	153.4896
209.000000	85.168	153.5551
212.000000	85.116	153.6051
214.000000	85.080	153.6277
218.000000	85.011	153.6671
220.000000	84.979	153.6838
224.000000	84.909	153.7191
227.000000	84.854	153.7774
230.000000	84.801	153.8648
233.000000	84.751	153.9585
236.000000	84.702	154.0716
240.000000	84.633	154.1906
243.000000	84.571	154.2549
247.000000	84.496	154.3843
250.000000	84.447	154.5068
254.000000	84.380	154.6573
258.000000	84.309	154.8304
262.000000	84.243	155.0430
265.000000	84.193	155.2063
269.000000	84.123	155.4697
272.000000	84.074	155.7256
276.000000	84.018	156.1650
280.000000	83.975	156.6700
285.000000	83.969	157.2529
290.000000	84.003	157.6301
295.000000	84.032	157.7056
300.000000	84.030	157.6122
304.000000	84.004	157.5114
307.000000	83.977	157.4561
311.000000	83.937	157.4490
315.000000	83.900	157.5101
320.000000	83.862	157.5638
325.000000	83.826	157.6143
330.000000	83.789	157.7392
335.000000	83.744	157.8910
340.000000	83.700	158.0294
345.000000	83.657	158.1922
350.000000	83.612	158.3397
355.000000	83.572	158.4921
360.000000	83.534	158.6750
365.000000	83.493	158.8427
370.000000	83.456	158.9738
375.000000	83.420	159.1203
382.000000	83.365	159.3452
387.000000	83.325	159.5307
395.000000	83.273	159.8220
400.000000	83.241	159.9993
406.000000	83.201	160.1988
412.000000	83.166	160.3938
418.000000	83.131	160.6016
425.000000	83.092	160.8489
431.000000	83.063	161.0261
437.000000	83.039	161.1875
444.000000	83.013	161.4166
450.000000	82.985	161.6272
455.000000	82.963	161.8025
462.000000	82.931	162.0307
468.000000	82.901	162.2047
475.000000	82.870	162.3989
482.000000	82.847	162.6188
487.000000	82.833	162.7648
494.000000	82.813	162.9329
500.000000	82.794	163.0792
508.000000	82.764	163.2939
515.000000	82.741	163.5144
522.000000	82.721	163.7360
530.000000	82.705	163.9487
538.000000	82.687	164.1460
545.000000	82.667	164.3168
552.000000	82.647	164.4895
560.000000	82.627	164.7100
570.000000	82.613	165.0009
580.000000	82.597	165.2679
590.000000	82.578	165.5237
600.000000	82.555	165.7823
608.000000	82.540	166.0219
615.000000	82.531	166.2313
622.000000	82.522	166.4099
630.000000	82.512	166.5984
640.000000	82.496	166.8718
650.000000	82.480	167.1161
660.000000	82.462	167.3420
670.000000	82.441	167.5776
680.000000	82.426	167.8129
690.000000	82.414	168.0553
700.000000	82.405	168.3033
710.000000	82.398	168.5619
720.000000	82.392	168.8307
730.000000	82.387	169.0719
740.000000	82.385	169.2935
750.000000	82.381	169.5289
762.000000	82.375	169.8542
775.000000	82.374	170.1912
788.000000	82.379	170.5076
800.000000	82.389	170.7531
812.000000	82.399	171.0025
825.000000	82.408	171.3024
838.000000	82.427	171.5502
850.000000	82.446	171.7627
862.000000	82.469	172.0046
875.000000	82.504	172.2460
885.000000	82.532	172.4083
900.000000	82.574	172.6524
912.000000	82.609	172.8047
925.000000	82.649	172.8982
938.000000	82.700	172.9442
950.000000	82.747	172.9869
962.000000	82.792	173.0280
975.000000	82.847	173.0450
988.000000	82.904	173.0234
1000.000000	82.955	172.9510
1015.000000	83.013	172.7529
1030.000000	83.073	172.5169
1044.000000	83.129	172.2725
1060.000000	83.192	171.9457
1075.000000	83.247	171.6061
1090.000000	83.299	171.2094
1106.000000	83.358	170.7111
1120.000000	83.413	170.2201
1138.000000	83.478	169.5381
1150.000000	83.515	169.0486
1172.000000	83.569	168.1132
1180.000000	83.586	167.7762
1206.000000	83.634	166.6370
1220.000000	83.657	165.9799
1241.000000	83.686	164.9838
1250.000000	83.693	164.5520
1265.000000	83.698	163.8223
1280.000000	83.696	163.0776
1315.000000	83.673	161.2851
1320.000000	83.668	161.0225
1340.000000	83.644	159.9532
1360.000000	83.607	158.8547
1380.000000	83.561	157.7444
1400.000000	83.512	156.5660
1430.000000	83.424	154.6045
1450.000000	83.345	153.1131
1475.000000	83.156	150.9741
1500.000000	82.792	149.3300
1525.000000	82.424	149.4957
1550.000000	82.307	150.0481
1575.000000	82.284	149.5599
1600.000000	82.209	148.5334
1625.000000	82.073	147.4299
1650.000000	81.891	146.3411
1675.000000	81.680	145.2554
1700.000000	81.449	144.2544
1725.000000	81.184	143.4427
1750.000000	80.891	142.8987
1775.000000	80.597	142.6760
1800.000000	80.332	142.7080
1825.000000	80.108	142.8682
1850.000000	79.913	142.9833
1875.000000	79.729	142.9618
1900.000000	79.542	142.8268
1925.000000	79.341	142.6775
1950.000000	79.129	142.5228
1975.000000	78.908	142.3663
2000.000000	78.682	142.2433
2030.000000	78.397	142.1978
2060.000000	78.102	142.2704
2090.000000	77.800	142.3768
2120.000000	77.487	142.5826
2140.000000	77.272	142.7573
2180.000000	76.843	143.2668
2200.000000	76.631	143.5988
2240.000000	76.194	144.3842
2270.000000	75.861	145.1499
2300.000000	75.521	146.1135
2330.000000	75.199	147.2649
2360.000000	74.903	148.6145
2400.000000	74.540	150.5101
2430.000000	74.292	151.8698
2470.000000	73.981	153.6519
2500.000000	73.750	154.9429
2540.000000	73.431	156.6891
2580.000000	73.103	158.6430
2620.000000	72.786	160.8081
2650.000000	72.561	162.5736
2690.000000	72.268	165.0437
2720.000000	72.058	166.9116
2760.000000	71.810	169.4966
2800.000000	71.582	172.1091
2850.000000	71.298	175.5977
2900.000000	71.064	179.3575
2950.000000	70.877	-176.7139
3000.000000	70.726	-172.6766
3040.000000	70.643	-169.4322
3070.000000	70.607	-167.0780
3110.000000	70.574	-163.9635
3150.000000	70.572	-160.8182
3200.000000	70.619	-156.9200
3250.000000	70.690	-153.1891
3300.000000	70.777	-149.6107
3350.000000	70.912	-146.0199
3400.000000	71.080	-142.5233
3450.000000	71.259	-139.2190
3500.000000	71.474	-136.0034
3550.000000	71.722	-132.8916
3600.000000	71.985	-129.9443
3650.000000	72.259	-127.1136
3700.000000	72.543	-124.4150
3750.000000	72.841	-121.8353
3820.000000	73.284	-118.4176
3870.000000	73.608	-116.0465
3950.000000	74.150	-112.4549
4000.000000	74.506	-110.3354
4060.000000	74.946	-107.9646
4120.000000	75.399	-105.7448
4180.000000	75.869	-103.6226
4250.000000	76.448	-101.2922
4310.000000	76.972	-99.4447
4370.000000	77.525	-97.7747
4440.000000	78.196	-96.1283
4500.000000	78.801	-95.0405
4550.000000	79.329	-94.3876
4620.000000	80.100	-93.9283
4680.000000	80.782	-94.0334
4750.000000	81.592	-94.8060
4820.000000	82.399	-96.3654
4870.000000	82.957	-98.0051
4940.000000	83.692	-101.1054
5000.000000	84.253	-104.4979
5080.000000	84.855	-109.9353
5150.000000	85.209	-115.2938
5220.000000	85.382	-120.8709
5300.000000	85.362	-127.0274
5380.000000	85.137	-132.4748
5450.000000	84.812	-136.4049
5520.000000	84.410	-139.4696
5600.000000	83.901	-141.9122
5700.000000	83.259	-143.5887
5800.000000	82.655	-144.0995
5900.000000	82.114	-143.7091
6000.000000	81.640	-142.6148
6080.000000	81.308	-141.3362
6150.000000	81.054	-139.9507
6220.000000	80.835	-138.3335
6300.000000	80.633	-136.1864
6400.000000	80.468	-133.0849
6500.000000	80.418	-129.6942
6600.000000	80.487	-126.1810
6700.000000	80.679	-122.7041
6800.000000	80.994	-119.3691
6900.000000	81.436	-116.2408
7000.000000	82.005	-113.3985
7100.000000	82.691	-110.9347
7200.000000	83.494	-108.9602
7300.000000	84.420	-107.6290
7400.000000	85.479	-107.1644
7500.000000	86.666	-107.9071
7620.000000	88.222	-111.1082
7750.000000	89.862	-118.5383
7880.000000	91.032	-130.6883
8000.000000	91.401	-144.6947
8120.000000	91.023	-158.2479
8250.000000	89.992	-169.4479
8380.000000	88.691	-176.3570
8500.000000	87.510	-179.7749
8620.000000	86.458	178.6447
8750.000000	85.487	178.2078
8850.000000	84.854	178.4437
9000.000000	84.078	179.3474
9120.000000	83.599	-179.6384
9250.000000	83.230	-178.4579
9380.000000	83.008	-177.5566
9500.000000	82.908	-177.2086
9620.000000	82.886	-177.5063
9750.000000	82.910	-178.7841
9880.000000	82.912	178.7908
10000.000000	82.823	175.6120
10150.000000	82.510	170.8662
10300.000000	81.935	166.0830
10440.000000	81.179	162.2928
10600.000000	80.131	159.2787
10750.000000	79.052	157.8837
10900.000000	77.941	157.8467
11060.000000	76.766	159.2027
11200.000000	75.781	161.4704
11380.000000	74.635	165.6715
11500.000000	73.969	169.1414
11720.000000	72.979	176.4866
11800.000000	72.693	179.3556
12060.000000	72.047	-171.0201
12200.000000	71.867	-165.7025
12410.000000	71.789	-157.6803
12500.000000	71.831	-154.2884
12650.000000	72.012	-148.7779
12800.000000	72.338	-143.5335
13150.000000	73.723	-133.0001
13200.000000	73.998	-131.7717
13400.000000	75.297	-127.8837
13600.000000	76.898	-126.2136
13800.000000	78.716	-127.6634
14000.000000	80.556	-133.1612
14300.000000	82.804	-149.7932
14500.000000	83.675	-165.2267
14750.000000	84.014	173.3954
15000.000000	83.643	150.8386
15250.000000	82.457	127.2607
15500.000000	80.208	106.1418
15750.000000	77.022	92.4811
16000.000000	73.433	87.1688
16250.000000	70.004	87.8567
16500.000000	67.037	92.2064
16750.000000	64.594	98.6555
17000.000000	62.624	106.2185
17250.000000	61.090	114.3796
17500.000000	59.980	122.9468
17750.000000	59.245	131.4261
18000.000000	58.927	139.1744
18250.000000	59.065	145.9489
18500.000000	59.661	150.6719
18750.000000	60.682	151.8107
19000.000000	61.822	146.8175
19250.000000	62.489	133.9105
19500.000000	62.100	115.9975
19750.000000	60.620	100.2917
20000.000000	58.978	91.7460
