* Measurement data measured by REW V5.20.13
* Source: EXCL: Mic in at rear panel (Pink)(Realtek(R) Audio), MICROPHONE (마스), L, volume: 1.000
* Format: 256k Log Swept Sine, 1 sweep at -12.0 dBFS with no timing reference
* Dated: 2022. 12. 27 오후 11:22:59
* REW Settings:
*  C-weighting compensation: Off
*  Target level: 75.0 dB
* Note: 
* Measurement: L_Gray
* Smoothing: 1/24 octave
* Frequency Step: 1/48 octave
* Start Frequency: 20.300 Hz
*
* Freq(Hz)	SPL(dB)	Phase(degrees)
20.299999	89.586	-152.3619
20.600000	89.611	-152.5736
20.900000	89.661	-152.9579
21.200001	89.705	-153.3438
21.400000	89.730	-153.6089
21.799999	89.771	-154.1711
22.000000	89.788	-154.4653
22.400000	89.814	-155.0517
22.700001	89.831	-155.4794
23.000000	89.849	-155.9046
23.299999	89.870	-156.3437
23.600000	89.895	-156.8076
24.000000	89.929	-157.4688
24.299999	89.954	-157.9829
24.700001	89.983	-158.6599
25.000000	90.001	-159.1387
25.400000	90.025	-159.7242
25.799999	90.055	-160.2615
26.200001	90.091	-160.7822
26.500000	90.120	-161.1780
26.900000	90.156	-161.7166
27.200001	90.179	-162.1205
27.600000	90.202	-162.6418
28.000000	90.221	-163.1297
28.500000	90.242	-163.7000
29.000000	90.263	-164.2664
29.500000	90.278	-164.8586
30.000000	90.286	-165.4644
30.400000	90.288	-165.9378
30.700001	90.289	-166.2809
31.100000	90.289	-166.7270
31.500000	90.290	-167.1674
32.000000	90.291	-167.7124
32.500000	90.293	-168.2439
33.000000	90.298	-168.7633
33.500000	90.308	-169.2818
34.000000	90.322	-169.8025
34.500000	90.334	-170.3161
35.000000	90.344	-170.8152
35.500000	90.353	-171.3009
36.000000	90.361	-171.7791
36.500000	90.366	-172.2489
37.000000	90.366	-172.6960
37.500000	90.364	-173.1060
38.200001	90.361	-173.6349
38.700001	90.361	-174.0201
39.500000	90.359	-174.7056
40.000000	90.351	-175.1610
40.599998	90.335	-175.6902
41.200001	90.317	-176.1728
41.799999	90.302	-176.6234
42.500000	90.292	-177.1506
43.099998	90.286	-177.6085
43.700001	90.279	-178.0507
44.400002	90.269	-178.5432
45.000000	90.262	-178.9615
45.500000	90.255	-179.3115
46.200001	90.243	-179.7902
46.799999	90.231	179.8198
47.500000	90.219	179.3725
48.200001	90.208	178.9084
48.700001	90.200	178.5690
49.400002	90.185	178.1024
50.000000	90.171	177.7176
50.799999	90.152	177.2228
51.500000	90.135	176.8098
52.200001	90.121	176.4145
53.000000	90.104	175.9696
53.799999	90.086	175.5255
54.500000	90.065	175.1444
55.200001	90.042	174.7829
56.000000	90.016	174.3932
57.000000	89.984	173.9032
58.000000	89.950	173.4037
59.000000	89.916	172.9146
60.000000	89.880	172.4426
60.799999	89.855	172.0803
61.500000	89.836	171.7652
62.200001	89.818	171.4550
63.000000	89.800	171.0934
64.000000	89.771	170.5920
65.000000	89.723	170.1326
66.000000	89.676	169.7753
67.000000	89.636	169.4299
68.000000	89.596	169.0867
69.000000	89.558	168.7316
70.000000	89.519	168.3617
71.000000	89.481	168.0004
72.000000	89.444	167.6304
73.000000	89.405	167.2644
74.000000	89.366	166.9246
75.000000	89.327	166.5991
76.199997	89.280	166.2180
77.500000	89.225	165.8414
78.800003	89.173	165.4981
80.000000	89.127	165.1737
81.199997	89.073	164.8369
82.500000	89.011	164.5045
83.800003	88.954	164.1860
85.000000	88.903	163.9064
86.199997	88.857	163.6220
87.500000	88.807	163.3176
88.500000	88.768	163.0912
90.000000	88.703	162.7852
91.199997	88.652	162.5788
92.500000	88.599	162.3706
93.800003	88.547	162.1554
95.000000	88.498	161.9492
96.199997	88.450	161.7614
97.500000	88.404	161.5643
98.800003	88.361	161.3365
100.000000	88.317	161.1356
101.500000	88.257	160.9299
103.000000	88.195	160.7481
104.400002	88.139	160.5580
106.000000	88.071	160.2789
107.500000	88.005	160.0725
109.000000	87.957	159.9445
110.599998	87.914	159.7827
112.000000	87.867	159.6362
113.800003	87.789	159.4950
115.000000	87.736	159.3987
117.199997	87.647	159.1664
118.000000	87.619	159.0779
120.599998	87.527	158.8997
122.000000	87.473	158.9906
124.099998	87.398	159.2195
125.000000	87.363	159.3011
126.500000	87.306	159.4265
128.000000	87.263	159.5358
131.500000	87.199	159.7728
132.000000	87.195	159.8289
134.000000	87.192	159.9817
136.000000	87.193	159.8832
138.000000	87.186	159.6480
140.000000	87.181	159.4081
143.000000	87.155	159.0137
145.000000	87.104	158.7393
147.500000	87.016	158.3907
150.000000	86.927	158.1086
152.500000	86.852	157.9720
155.000000	86.780	157.9397
157.500000	86.700	157.9413
160.000000	86.619	157.9888
162.500000	86.556	158.0732
165.000000	86.507	158.2013
167.500000	86.473	158.3831
170.000000	86.450	158.5000
172.500000	86.427	158.5411
175.000000	86.406	158.5341
177.500000	86.389	158.4403
180.000000	86.365	158.2658
182.500000	86.335	158.0851
185.000000	86.298	157.9174
187.500000	86.255	157.7430
190.000000	86.204	157.5377
192.500000	86.147	157.3451
195.000000	86.087	157.2428
197.500000	86.028	157.2357
200.000000	85.973	157.2460
203.000000	85.907	157.2090
206.000000	85.839	157.1605
209.000000	85.773	157.1528
212.000000	85.712	157.1985
214.000000	85.674	157.2292
218.000000	85.597	157.2791
220.000000	85.559	157.3242
224.000000	85.485	157.4481
227.000000	85.433	157.5384
230.000000	85.386	157.6412
233.000000	85.339	157.7594
236.000000	85.288	157.8470
240.000000	85.225	157.8957
243.000000	85.180	157.9324
247.000000	85.117	158.0483
250.000000	85.067	158.1618
254.000000	85.000	158.2755
258.000000	84.928	158.3838
262.000000	84.856	158.5289
265.000000	84.801	158.6955
269.000000	84.734	158.9940
272.000000	84.686	159.2487
276.000000	84.622	159.6918
280.000000	84.583	160.2715
285.000000	84.598	161.0030
290.000000	84.653	161.3224
295.000000	84.685	161.1625
300.000000	84.671	160.9280
304.000000	84.640	160.7738
307.000000	84.609	160.6982
311.000000	84.562	160.6759
315.000000	84.520	160.7185
320.000000	84.479	160.8253
325.000000	84.435	160.9567
330.000000	84.387	161.1093
335.000000	84.340	161.2775
340.000000	84.297	161.4265
345.000000	84.257	161.5699
350.000000	84.218	161.7352
355.000000	84.175	161.9362
360.000000	84.129	162.1318
365.000000	84.088	162.3141
370.000000	84.058	162.5045
375.000000	84.025	162.7092
382.000000	83.971	163.0238
387.000000	83.938	163.2292
395.000000	83.889	163.4910
400.000000	83.855	163.6606
406.000000	83.815	163.8819
412.000000	83.778	164.1454
418.000000	83.742	164.4130
425.000000	83.702	164.6788
431.000000	83.674	164.8677
437.000000	83.651	165.0663
444.000000	83.625	165.3471
450.000000	83.602	165.5895
455.000000	83.585	165.7825
462.000000	83.555	166.0554
468.000000	83.531	166.2686
475.000000	83.505	166.5054
482.000000	83.484	166.7603
487.000000	83.474	166.9582
494.000000	83.461	167.2357
500.000000	83.449	167.4401
508.000000	83.430	167.7040
515.000000	83.408	167.9655
522.000000	83.392	168.2250
530.000000	83.379	168.5072
538.000000	83.366	168.7590
545.000000	83.353	168.9912
552.000000	83.340	169.2289
560.000000	83.327	169.5121
570.000000	83.308	169.8730
580.000000	83.298	170.1920
590.000000	83.292	170.4961
600.000000	83.285	170.8373
608.000000	83.279	171.1253
615.000000	83.273	171.3518
622.000000	83.267	171.5452
630.000000	83.257	171.7894
640.000000	83.249	172.1451
650.000000	83.247	172.4755
660.000000	83.249	172.7827
670.000000	83.248	173.0987
680.000000	83.249	173.4263
690.000000	83.248	173.7390
700.000000	83.248	174.0559
710.000000	83.247	174.3414
720.000000	83.253	174.6281
730.000000	83.268	174.9443
740.000000	83.284	175.2645
750.000000	83.297	175.5613
762.000000	83.309	175.9086
775.000000	83.327	176.3226
788.000000	83.354	176.6816
800.000000	83.374	177.0256
812.000000	83.397	177.3638
825.000000	83.429	177.6808
838.000000	83.466	177.9951
850.000000	83.508	178.2783
862.000000	83.555	178.5745
875.000000	83.609	178.8722
885.000000	83.651	179.0586
900.000000	83.714	179.3024
912.000000	83.769	179.4697
925.000000	83.835	179.6206
938.000000	83.905	179.7471
950.000000	83.972	179.8261
962.000000	84.041	179.8761
975.000000	84.115	179.8928
988.000000	84.192	179.8796
1000.000000	84.267	179.8448
1015.000000	84.351	179.7079
1030.000000	84.434	179.5027
1044.000000	84.516	179.2748
1060.000000	84.613	178.9636
1075.000000	84.700	178.6336
1090.000000	84.784	178.2652
1106.000000	84.876	177.8015
1120.000000	84.954	177.3283
1138.000000	85.053	176.6619
1150.000000	85.117	176.1962
1172.000000	85.227	175.2984
1180.000000	85.263	174.9549
1206.000000	85.370	173.7959
1220.000000	85.422	173.1385
1241.000000	85.493	172.0892
1250.000000	85.520	171.6084
1265.000000	85.561	170.7769
1280.000000	85.598	169.9135
1315.000000	85.661	167.8403
1320.000000	85.667	167.5312
1340.000000	85.680	166.2443
1360.000000	85.672	164.9052
1380.000000	85.645	163.5786
1400.000000	85.604	162.2572
1430.000000	85.511	160.2862
1450.000000	85.429	159.0063
1475.000000	85.298	157.5023
1500.000000	85.133	156.1723
1525.000000	84.934	155.1045
1550.000000	84.701	154.5521
1575.000000	84.489	155.0148
1600.000000	84.490	156.4264
1625.000000	84.820	156.9867
1650.000000	85.173	155.0765
1675.000000	85.268	151.9519
1700.000000	85.164	149.0687
1725.000000	84.988	146.5824
1750.000000	84.802	144.1555
1775.000000	84.616	141.5055
1800.000000	84.379	138.5300
1825.000000	84.007	135.4662
1850.000000	83.462	132.9925
1875.000000	82.827	131.7624
1900.000000	82.248	131.6965
1925.000000	81.800	132.1710
1950.000000	81.464	132.6905
1975.000000	81.192	133.0694
2000.000000	80.942	133.3163
2030.000000	80.641	133.4797
2060.000000	80.333	133.4807
2090.000000	80.008	133.4333
2120.000000	79.674	133.4627
2140.000000	79.447	133.5405
2180.000000	78.974	133.8426
2200.000000	78.731	134.0823
2240.000000	78.249	134.8068
2270.000000	77.906	135.5024
2300.000000	77.591	136.2068
2330.000000	77.298	136.8681
2360.000000	77.009	137.4581
2400.000000	76.595	138.1514
2430.000000	76.265	138.7413
2470.000000	75.798	139.7751
2500.000000	75.444	140.6898
2540.000000	74.982	142.0518
2580.000000	74.523	143.6568
2620.000000	74.069	145.5103
2650.000000	73.740	147.0735
2690.000000	73.311	149.3441
2720.000000	72.991	151.1325
2760.000000	72.574	153.6171
2800.000000	72.186	156.2372
2850.000000	71.732	159.9034
2900.000000	71.309	163.8961
2950.000000	70.918	168.1841
3000.000000	70.573	172.7376
3040.000000	70.375	176.4403
3070.000000	70.256	179.3469
3110.000000	70.119	-176.7203
3150.000000	70.015	-172.9479
3200.000000	69.944	-168.2195
3250.000000	69.910	-163.5312
3300.000000	69.928	-158.8158
3350.000000	69.997	-154.2298
3400.000000	70.120	-149.8820
3450.000000	70.284	-145.6589
3500.000000	70.486	-141.5750
3550.000000	70.725	-137.6538
3600.000000	70.992	-133.8424
3650.000000	71.282	-130.2788
3700.000000	71.587	-126.8511
3750.000000	71.918	-123.5252
3820.000000	72.424	-119.2044
3870.000000	72.781	-116.2375
3950.000000	73.373	-111.7753
4000.000000	73.758	-109.1680
4060.000000	74.237	-106.1491
4120.000000	74.749	-103.3027
4180.000000	75.303	-100.7226
4250.000000	75.969	-97.9227
4310.000000	76.552	-95.7526
4370.000000	77.148	-93.8229
4440.000000	77.869	-91.8603
4500.000000	78.510	-90.4793
4550.000000	79.063	-89.5430
4620.000000	79.873	-88.6130
4680.000000	80.595	-88.2191
4750.000000	81.463	-88.3339
4820.000000	82.348	-89.2002
4870.000000	82.983	-90.3386
4940.000000	83.853	-92.7477
5000.000000	84.557	-95.6230
5080.000000	85.393	-100.6333
5150.000000	85.978	-106.0106
5220.000000	86.390	-112.0683
5300.000000	86.612	-119.3433
5380.000000	86.565	-126.3657
5450.000000	86.329	-131.8345
5520.000000	85.948	-136.3816
5600.000000	85.395	-140.2901
5700.000000	84.627	-143.3017
5800.000000	83.858	-144.5128
5900.000000	83.152	-144.2629
6000.000000	82.553	-142.9107
6080.000000	82.160	-141.2577
6150.000000	81.882	-139.5271
6220.000000	81.663	-137.6043
6300.000000	81.485	-135.2049
6400.000000	81.368	-132.0193
6500.000000	81.359	-128.7274
6600.000000	81.451	-125.4229
6700.000000	81.637	-122.1843
6800.000000	81.925	-119.0537
6900.000000	82.336	-116.0707
7000.000000	82.876	-113.2931
7100.000000	83.533	-110.8065
7200.000000	84.308	-108.7547
7300.000000	85.210	-107.2874
7400.000000	86.250	-106.6334
7500.000000	87.426	-107.1447
7620.000000	88.984	-109.9748
7750.000000	90.658	-116.9063
7880.000000	91.902	-128.6328
8000.000000	92.359	-142.5343
8120.000000	92.060	-156.2930
8250.000000	91.083	-167.8430
8380.000000	89.810	-175.0203
8500.000000	88.652	-178.5845
8620.000000	87.637	179.7436
8750.000000	86.728	179.1432
8850.000000	86.156	179.1147
9000.000000	85.473	179.3353
9120.000000	85.043	179.5306
9250.000000	84.676	179.6731
9380.000000	84.397	179.5680
9500.000000	84.191	179.1786
9620.000000	84.030	178.4618
9750.000000	83.907	177.1971
9880.000000	83.814	175.1968
10000.000000	83.706	172.4904
10150.000000	83.438	167.9418
10300.000000	82.913	162.6330
10440.000000	82.144	157.9459
10600.000000	80.973	154.0625
10750.000000	79.704	152.4725
10900.000000	78.396	152.8517
11060.000000	77.067	155.0607
11200.000000	76.014	158.1716
11380.000000	74.841	163.2913
11500.000000	74.185	167.1892
11720.000000	73.225	174.9828
11800.000000	72.948	177.9594
12060.000000	72.306	-171.9594
12200.000000	72.118	-166.3921
12410.000000	72.014	-158.1061
12500.000000	72.039	-154.6097
12650.000000	72.194	-148.8578
12800.000000	72.500	-143.2031
13150.000000	73.876	-131.0558
13200.000000	74.160	-129.5289
13400.000000	75.550	-124.3068
13600.000000	77.388	-121.1321
13800.000000	79.660	-121.2995
14000.000000	82.111	-127.0048
14300.000000	84.875	-149.9171
14500.000000	85.401	-171.4524
14750.000000	84.742	164.1146
15000.000000	83.475	144.1577
15250.000000	81.855	125.1452
15500.000000	79.523	108.4070
15750.000000	76.493	98.1309
16000.000000	73.251	94.9027
16250.000000	70.279	96.3129
16500.000000	67.767	100.0922
16750.000000	65.655	105.2853
17000.000000	63.863	111.5892
17250.000000	62.423	118.6685
17500.000000	61.373	126.0949
17750.000000	60.738	133.5419
18000.000000	60.517	140.4130
18250.000000	60.746	145.7664
18500.000000	61.482	148.1929
18750.000000	62.551	145.1351
19000.000000	63.349	133.8742
19250.000000	63.121	115.8525
19500.000000	61.506	98.6196
19750.000000	58.814	88.9702
20000.000000	56.295	86.3226
