* Measurement data measured by REW V5.20.7
* Source: Input device not selected, no input selected, L, volume: no control
* Format: 128k Log Swept Sine, 1 sweep at -12.0 dBFS with no timing reference
* Dated: 2022. 5. 1 ¿ÀÈÄ 6:33:47
* REW Settings:
*  C-weighting compensation: Off
*  Target level: 75.0 dB
* Note: 
* Measurement: R
* Smoothing: 1/24 octave
* Frequency Step: 1/48 octave
* Start Frequency: 20.300 Hz
*
* Freq(Hz)	SPL(dB)	Phase(degrees)
20.299999	79.873	45.5240
20.600000	79.882	45.3371
20.900000	79.909	45.0240
21.200001	79.959	44.7543
21.400000	80.000	44.5369
21.799999	80.083	43.9341
22.000000	80.115	43.5506
22.400000	80.148	42.7429
22.700001	80.149	42.2307
23.000000	80.147	41.8699
23.299999	80.157	41.6280
23.600000	80.190	41.4199
24.000000	80.265	41.0370
24.299999	80.330	40.5858
24.700001	80.406	39.7694
25.000000	80.442	39.0751
25.400000	80.460	38.1814
25.799999	80.459	37.4474
26.200001	80.462	36.8961
26.500000	80.476	36.5532
26.900000	80.514	36.0949
27.200001	80.552	35.6913
27.600000	80.602	35.0455
28.000000	80.634	34.3310
28.500000	80.647	33.5231
29.000000	80.651	32.9805
29.500000	80.684	32.6517
30.000000	80.757	32.2674
30.400000	80.823	31.7754
30.700001	80.860	31.3078
31.100000	80.881	30.6734
31.500000	80.876	30.1673
32.000000	80.866	29.8048
32.500000	80.883	29.5744
33.000000	80.916	29.2176
33.500000	80.933	28.7291
34.000000	80.930	28.3074
34.500000	80.944	27.9686
35.000000	80.985	27.4518
35.500000	81.010	26.6139
36.000000	80.987	25.7567
36.500000	80.956	25.2285
37.000000	80.990	24.8378
37.500000	81.070	24.0697
38.200001	81.091	22.6564
38.700001	81.069	22.5131
39.500000	81.452	23.2428
40.000000	81.891	21.9065
40.599998	82.164	17.7153
41.200001	81.891	13.7596
41.799999	81.317	13.3717
42.500000	81.010	16.6533
43.099998	81.197	18.7841
43.700001	81.387	19.1579
44.400002	81.431	19.1922
45.000000	81.446	19.5755
45.500000	81.478	19.7332
46.200001	81.487	19.5550
46.799999	81.453	19.3711
47.500000	81.426	19.1187
48.200001	81.400	18.5571
48.700001	81.362	18.0940
49.400002	81.310	17.6624
50.000000	81.315	17.3922
50.799999	81.374	16.6914
51.500000	81.391	15.8368
52.200001	81.366	15.3164
53.000000	81.377	15.2457
53.799999	81.448	15.0491
54.500000	81.478	14.6165
55.200001	81.457	14.3224
56.000000	81.429	14.2686
57.000000	81.414	14.1863
58.000000	81.416	14.1214
59.000000	81.486	13.6603
60.000000	81.509	12.5612
60.799999	81.482	11.8786
61.500000	81.472	11.4726
62.200001	81.474	11.1461
63.000000	81.495	10.9243
64.000000	81.557	10.6058
65.000000	81.580	10.1326
66.000000	81.553	9.9824
67.000000	81.541	10.1840
68.000000	81.576	10.2821
69.000000	81.593	9.9328
70.000000	81.563	9.6324
71.000000	81.564	9.4068
72.000000	81.584	8.9366
73.000000	81.592	8.3236
74.000000	81.584	7.8467
75.000000	81.607	7.5604
76.199997	81.638	6.9442
77.500000	81.603	6.6349
78.800003	81.626	6.5175
80.000000	81.629	5.9928
81.199997	81.578	5.5283
82.500000	81.540	5.3632
83.800003	81.569	5.1797
85.000000	81.603	4.9201
86.199997	81.640	4.7809
87.500000	81.658	4.6045
88.500000	81.642	4.5724
90.000000	81.603	4.4743
91.199997	81.558	4.3055
92.500000	81.543	3.9584
93.800003	81.535	3.4659
95.000000	81.554	3.3047
96.199997	81.614	3.2878
97.500000	81.690	3.2407
98.800003	81.722	2.7951
100.000000	81.658	2.2511
101.500000	81.563	1.7740
103.000000	81.539	1.2184
104.400002	81.552	0.8082
106.000000	81.587	1.0575
107.500000	81.672	1.5593
109.000000	81.701	1.2515
110.599998	81.625	0.4817
112.000000	81.592	-0.2657
113.800003	81.638	-0.7186
115.000000	81.698	-0.2454
117.199997	81.701	2.4525
118.000000	81.675	4.1708
120.599998	82.014	6.6429
122.000000	81.913	3.2708
124.099998	81.505	-0.7925
125.000000	81.445	-1.7586
126.500000	81.481	-2.6395
128.000000	81.559	-2.8707
131.500000	81.601	-2.8949
132.000000	81.599	-2.9898
134.000000	81.601	-3.5053
136.000000	81.622	-3.8514
138.000000	81.618	-3.9778
140.000000	81.570	-4.0660
143.000000	81.499	-4.5256
145.000000	81.471	-4.7791
147.500000	81.458	-4.9081
150.000000	81.456	-4.9950
152.500000	81.481	-5.4268
155.000000	81.483	-6.0731
157.500000	81.481	-6.3447
160.000000	81.506	-6.4284
162.500000	81.483	-6.7188
165.000000	81.422	-7.1391
167.500000	81.394	-7.6095
170.000000	81.381	-7.8206
172.500000	81.364	-7.8505
175.000000	81.305	-8.2219
177.500000	81.265	-8.7725
180.000000	81.273	-9.1592
182.500000	81.302	-9.0978
185.000000	81.333	-9.0664
187.500000	81.339	-9.4084
190.000000	81.336	-9.8513
192.500000	81.326	-10.2119
195.000000	81.292	-10.4047
197.500000	81.262	-10.4671
200.000000	81.251	-10.5284
203.000000	81.245	-10.6893
206.000000	81.236	-10.8237
209.000000	81.260	-11.0025
212.000000	81.241	-11.3683
214.000000	81.196	-11.6093
218.000000	81.143	-12.0412
220.000000	81.150	-12.1896
224.000000	81.149	-12.4004
227.000000	81.116	-12.6630
230.000000	81.102	-12.9737
233.000000	81.112	-13.1752
236.000000	81.117	-13.2882
240.000000	81.087	-13.5732
243.000000	81.048	-13.7457
247.000000	81.029	-13.9306
250.000000	81.014	-14.2185
254.000000	80.962	-14.6561
258.000000	80.916	-14.9686
262.000000	80.898	-15.2191
265.000000	80.896	-15.3332
269.000000	80.904	-15.3607
272.000000	80.890	-15.3986
276.000000	80.843	-15.5103
280.000000	80.807	-15.5760
285.000000	80.779	-15.8950
290.000000	80.782	-16.3210
295.000000	80.746	-16.7888
300.000000	80.712	-17.2886
304.000000	80.686	-17.3730
307.000000	80.684	-17.4212
311.000000	80.683	-17.6271
315.000000	80.639	-17.7511
320.000000	80.595	-17.7876
325.000000	80.571	-17.8652
330.000000	80.542	-17.8648
335.000000	80.525	-18.1011
340.000000	80.493	-18.3859
345.000000	80.454	-18.5637
350.000000	80.435	-18.8920
355.000000	80.416	-19.0548
360.000000	80.374	-19.1198
365.000000	80.317	-19.3644
370.000000	80.274	-19.6504
375.000000	80.242	-19.7265
382.000000	80.193	-19.8051
387.000000	80.184	-20.0279
395.000000	80.137	-20.1153
400.000000	80.100	-19.9486
406.000000	80.086	-20.0510
412.000000	80.086	-20.4309
418.000000	80.068	-20.7012
425.000000	79.985	-20.8844
431.000000	79.914	-21.1798
437.000000	79.885	-21.3775
444.000000	79.858	-21.2744
450.000000	79.820	-21.1681
455.000000	79.794	-21.2871
462.000000	79.766	-21.5510
468.000000	79.735	-21.7198
475.000000	79.712	-21.8695
482.000000	79.693	-22.0577
487.000000	79.649	-22.1497
494.000000	79.597	-22.2444
500.000000	79.569	-22.2617
508.000000	79.502	-22.3562
515.000000	79.448	-22.5768
522.000000	79.410	-22.8494
530.000000	79.368	-22.9210
538.000000	79.313	-22.8980
545.000000	79.266	-22.9103
552.000000	79.235	-22.8051
560.000000	79.236	-22.5952
570.000000	79.210	-22.8382
580.000000	79.116	-22.9405
590.000000	79.024	-22.8768
600.000000	78.975	-22.7322
608.000000	78.970	-22.4677
615.000000	78.957	-22.2380
622.000000	78.923	-22.1765
630.000000	78.869	-22.2287
640.000000	78.782	-22.2220
650.000000	78.737	-22.0950
660.000000	78.700	-21.9059
670.000000	78.665	-21.5128
680.000000	78.631	-21.2492
690.000000	78.570	-21.1978
700.000000	78.513	-21.0714
710.000000	78.494	-20.8062
720.000000	78.485	-20.5135
730.000000	78.453	-20.3167
740.000000	78.423	-20.1492
750.000000	78.416	-19.9763
762.000000	78.401	-19.9276
775.000000	78.398	-19.4457
788.000000	78.371	-18.9740
800.000000	78.311	-18.6842
812.000000	78.282	-18.3330
825.000000	78.291	-18.0415
838.000000	78.307	-17.6492
850.000000	78.316	-17.1831
862.000000	78.304	-16.6613
875.000000	78.278	-16.2704
885.000000	78.281	-16.2026
900.000000	78.329	-16.0154
912.000000	78.343	-15.7076
925.000000	78.353	-15.2582
938.000000	78.403	-14.7267
950.000000	78.462	-14.4267
962.000000	78.513	-14.3468
975.000000	78.577	-14.1587
988.000000	78.673	-13.9114
1000.000000	78.748	-13.7240
1015.000000	78.742	-13.6168
1030.000000	78.753	-13.3583
1044.000000	78.786	-13.1531
1060.000000	78.840	-13.1282
1075.000000	78.901	-13.1394
1090.000000	78.959	-13.1036
1106.000000	78.998	-13.1861
1120.000000	79.035	-13.2393
1138.000000	79.079	-13.1217
1150.000000	79.116	-13.0672
1172.000000	79.200	-13.0446
1180.000000	79.227	-13.0867
1206.000000	79.297	-13.2883
1220.000000	79.333	-13.2560
1241.000000	79.390	-13.2176
1250.000000	79.414	-13.3160
1265.000000	79.436	-13.5222
1280.000000	79.452	-13.6797
1315.000000	79.519	-13.8078
1320.000000	79.525	-13.7887
1340.000000	79.546	-13.6670
1360.000000	79.560	-13.6328
1380.000000	79.574	-13.8199
1400.000000	79.605	-14.0067
1430.000000	79.654	-13.9537
1450.000000	79.665	-14.0013
1475.000000	79.698	-13.8149
1500.000000	79.716	-13.6492
1525.000000	79.747	-13.5380
1550.000000	79.794	-13.2738
1575.000000	79.834	-13.1064
1600.000000	79.858	-13.0157
1625.000000	79.881	-13.0816
1650.000000	79.913	-12.9811
1675.000000	79.953	-12.7744
1700.000000	80.028	-12.5773
1725.000000	80.084	-12.4073
1750.000000	80.120	-12.3208
1775.000000	80.174	-12.0307
1800.000000	80.235	-11.6673
1825.000000	80.296	-11.4045
1850.000000	80.358	-11.1830
1875.000000	80.420	-10.9570
1900.000000	80.489	-10.7791
1925.000000	80.576	-10.6317
1950.000000	80.661	-10.4592
1975.000000	80.727	-10.2584
2000.000000	80.795	-10.1133
2030.000000	80.897	-10.0503
2060.000000	80.998	-10.0009
2090.000000	81.108	-9.7836
2120.000000	81.227	-9.5596
2140.000000	81.313	-9.4964
2180.000000	81.470	-9.6548
2200.000000	81.537	-9.7040
2240.000000	81.697	-9.5831
2270.000000	81.831	-9.6790
2300.000000	81.965	-9.9170
2330.000000	82.096	-10.1503
2360.000000	82.224	-10.3228
2400.000000	82.390	-10.5558
2430.000000	82.505	-10.8702
2470.000000	82.651	-11.4377
2500.000000	82.757	-11.8876
2540.000000	82.898	-12.5552
2580.000000	83.048	-13.2187
2620.000000	83.186	-13.9411
2650.000000	83.280	-14.5472
2690.000000	83.395	-15.4393
2720.000000	83.481	-16.1414
2760.000000	83.578	-17.1342
2800.000000	83.647	-18.1813
2850.000000	83.699	-19.5405
2900.000000	83.732	-21.0190
2950.000000	83.738	-22.5221
3000.000000	83.694	-23.9631
3040.000000	83.624	-25.0059
3070.000000	83.553	-25.6409
3110.000000	83.446	-26.2597
3150.000000	83.344	-26.5812
3200.000000	83.249	-26.6163
3250.000000	83.198	-26.6071
3300.000000	83.181	-26.7965
3350.000000	83.170	-27.1259
3400.000000	83.145	-27.4261
3450.000000	83.108	-27.6980
3500.000000	83.072	-28.0353
3550.000000	83.037	-28.3335
3600.000000	82.992	-28.5343
3650.000000	82.953	-28.7019
3700.000000	82.916	-28.8119
3750.000000	82.879	-28.9065
3820.000000	82.832	-29.0764
3870.000000	82.799	-29.1217
3950.000000	82.759	-29.2173
4000.000000	82.740	-29.2749
4060.000000	82.745	-29.2954
4120.000000	82.754	-29.3301
4180.000000	82.744	-29.3708
4250.000000	82.735	-29.5233
4310.000000	82.744	-29.8064
4370.000000	82.753	-30.1567
4440.000000	82.764	-30.6053
4500.000000	82.768	-31.0599
4550.000000	82.780	-31.5255
4620.000000	82.798	-32.3350
4680.000000	82.785	-33.0545
4750.000000	82.739	-33.8108
4820.000000	82.679	-34.6303
4870.000000	82.625	-35.3566
4940.000000	82.531	-36.4094
5000.000000	82.425	-37.2350
5080.000000	82.248	-38.1917
5150.000000	82.078	-38.9246
5220.000000	81.892	-39.5642
5300.000000	81.638	-40.0435
5380.000000	81.377	-40.3024
5450.000000	81.146	-40.3771
5520.000000	80.908	-40.3344
5600.000000	80.632	-39.9996
5700.000000	80.311	-39.2188
5800.000000	80.026	-38.1222
5900.000000	79.757	-36.4344
6000.000000	79.496	-34.4574
6080.000000	79.315	-32.7091
6150.000000	79.182	-31.0735
6220.000000	79.087	-29.3653
6300.000000	79.026	-27.2806
6400.000000	79.005	-24.3816
6500.000000	79.024	-21.3160
6600.000000	79.091	-18.3148
6700.000000	79.251	-15.3410
6800.000000	79.494	-12.3709
6900.000000	79.801	-9.5084
7000.000000	80.200	-6.9254
7100.000000	80.694	-4.7155
7200.000000	81.270	-3.0478
7300.000000	81.916	-1.9895
7400.000000	82.613	-1.8203
7500.000000	83.316	-2.8726
7620.000000	84.085	-5.9095
7750.000000	84.683	-11.2184
7880.000000	84.925	-17.6916
8000.000000	84.827	-23.6914
8120.000000	84.484	-28.7578
8250.000000	83.939	-32.9228
8380.000000	83.341	-36.0670
8500.000000	82.755	-38.5138
8620.000000	82.101	-40.7230
8750.000000	81.279	-42.5356
8850.000000	80.559	-43.2973
9000.000000	79.393	-43.2561
9120.000000	78.438	-41.9184
9250.000000	77.453	-39.0874
9380.000000	76.579	-35.1445
9500.000000	75.879	-31.0382
9620.000000	75.269	-26.4804
9750.000000	74.711	-21.1909
9880.000000	74.269	-15.8993
10000.000000	73.981	-10.9656
10150.000000	73.788	-4.8392
10300.000000	73.697	1.3685
10440.000000	73.724	7.0908
10600.000000	73.929	13.0990
10750.000000	74.278	17.8946
10900.000000	74.745	22.0909
11060.000000	75.380	25.7089
11200.000000	76.031	27.6073
11380.000000	76.889	27.7373
11500.000000	77.429	26.2888
11720.000000	78.118	20.3569
11800.000000	78.206	17.4182
12060.000000	77.736	7.5483
12200.000000	77.047	3.6029
12410.000000	75.628	0.9666
12500.000000	74.960	1.1178
12650.000000	73.879	2.7389
12800.000000	72.878	5.5996
13150.000000	70.925	16.5055
13200.000000	70.688	18.4121
13400.000000	69.878	26.3009
13600.000000	69.352	34.3122
13800.000000	69.012	42.7828
14000.000000	68.774	51.8546
14300.000000	68.788	65.4910
14500.000000	69.132	74.3405
14750.000000	70.006	83.9728
15000.000000	71.468	91.3509
15250.000000	73.441	91.9652
15500.000000	74.511	80.9870
15750.000000	74.096	83.1246
16000.000000	77.132	95.1886
16250.000000	79.685	71.4320
16500.000000	78.512	36.6430
16750.000000	74.644	29.7773
17000.000000	72.979	34.1825
17250.000000	73.833	18.7618
17500.000000	72.907	-12.6864
17750.000000	69.541	-47.2019
18000.000000	64.714	-179.7030
18250.000000	59.744	96.3059
18500.000000	55.810	108.3025
18750.000000	53.587	58.6289
19000.000000	52.489	63.6094
19250.000000	51.984	174.8203
19500.000000	51.799	-59.4414
19750.000000	51.652	-43.6797
20000.000000	51.603	-64.6172
