* Measurement data measured by REW V5.20.5
* Source: ??? (Realtek(R) Audio), MICROPHONE (Master Volume), L, volume: 1.000
* Format: 128k Log Swept Sine, 4 sweeps at -12.0 dBFS with no timing reference
* Dated: 29-Apr-2022 00:01:54
* REW Settings:
*  C-weighting compensation: Off
*  Target level: 75.0 dB
* Note: 
* Measurement: J2XR Sample 2 (Green Filter) R
* Smoothing: 1/24 octave
* Frequency Step: 1/48 octave
* Start Frequency: 20.300 Hz
*
* Freq(Hz)	SPL(dB)	Phase(degrees)
20.299999	76.173	38.5658
20.600000	76.183	38.3706
20.900000	76.205	38.0116
21.200001	76.231	37.6368
21.400000	76.248	37.3673
21.799999	76.283	36.7635
22.000000	76.299	36.4292
22.400000	76.324	35.7186
22.700001	76.339	35.1648
23.000000	76.348	34.6113
23.299999	76.353	34.0911
23.600000	76.357	33.6379
24.000000	76.370	33.1722
24.299999	76.395	32.9132
24.700001	76.451	32.6162
25.000000	76.505	32.3721
25.400000	76.579	31.9909
25.799999	76.645	31.5958
26.200001	76.703	31.2418
26.500000	76.743	30.9823
26.900000	76.786	30.5707
27.200001	76.795	30.1945
27.600000	76.757	29.7137
28.000000	76.660	29.5645
28.500000	76.537	30.2229
29.000000	76.555	31.4271
29.500000	76.744	32.0106
30.000000	76.939	31.1913
30.400000	76.986	29.8682
30.700001	76.944	28.8990
31.100000	76.833	28.0542
31.500000	76.737	27.7366
32.000000	76.710	27.5135
32.500000	76.739	26.8434
33.000000	76.725	25.8635
33.500000	76.665	25.2023
34.000000	76.650	25.0253
34.500000	76.721	24.8083
35.000000	76.812	24.1554
35.500000	76.846	23.3186
36.000000	76.839	22.7742
36.500000	76.852	22.5245
37.000000	76.897	22.1488
37.500000	76.910	21.4843
38.200001	76.808	20.8592
38.700001	76.728	21.1428
39.500000	76.800	21.9409
40.000000	76.926	21.7861
40.599998	77.033	20.8505
41.200001	77.040	19.7015
41.799999	76.974	18.8150
42.500000	76.861	18.3716
43.099998	76.789	18.5485
43.700001	76.796	18.9796
44.400002	76.899	19.2111
45.000000	77.012	18.8998
45.500000	77.089	18.3194
46.200001	77.143	17.1322
46.799999	77.111	15.9763
47.500000	76.986	15.0694
48.200001	76.876	14.9976
48.700001	76.871	15.1657
49.400002	76.939	15.0464
50.000000	76.976	14.5679
50.799999	76.940	14.2281
51.500000	76.934	14.6618
52.200001	77.033	15.0667
53.000000	77.128	14.5799
53.799999	77.029	14.1646
54.500000	76.938	14.8852
55.200001	77.017	15.5402
56.000000	77.133	14.7638
57.000000	77.036	13.2389
58.000000	76.923	12.4595
59.000000	76.799	11.8078
60.000000	76.751	12.5949
60.799999	76.938	13.0798
61.500000	77.089	12.4959
62.200001	77.095	11.7867
63.000000	77.020	11.9784
64.000000	77.069	13.1304
65.000000	77.229	13.4199
66.000000	77.284	12.9903
67.000000	77.272	12.7141
68.000000	77.232	12.2171
69.000000	77.086	11.5002
70.000000	76.791	10.8278
71.000000	76.299	11.5415
72.000000	76.073	14.3367
73.000000	76.345	14.6495
74.000000	76.556	11.2763
75.000000	76.637	5.9237
76.199997	76.141	-0.2797
77.500000	75.562	3.7185
78.800003	76.388	7.6391
80.000000	76.931	7.1912
81.199997	77.241	7.4727
82.500000	77.382	7.9672
83.800003	77.331	8.5610
85.000000	77.255	9.1287
86.199997	77.227	8.9866
87.500000	77.190	8.2908
88.500000	77.170	7.8291
90.000000	77.167	7.5863
91.199997	77.198	7.6694
92.500000	77.235	7.6269
93.800003	77.239	7.2965
95.000000	77.213	6.8166
96.199997	77.173	6.2281
97.500000	77.101	5.7040
98.800003	77.033	5.7309
100.000000	77.034	6.0585
101.500000	77.115	6.1777
103.000000	77.186	5.6019
104.400002	77.207	4.8443
106.000000	77.190	4.1418
107.500000	77.171	3.9582
109.000000	77.148	4.0943
110.599998	77.116	4.4960
112.000000	77.095	4.6363
113.800003	77.016	4.4577
115.000000	76.968	4.4660
117.199997	77.017	4.4129
118.000000	77.048	4.2051
120.599998	77.046	3.7259
122.000000	77.041	3.7865
124.099998	77.097	3.6017
125.000000	77.135	3.3131
126.500000	77.180	2.7549
128.000000	77.211	2.4833
131.500000	77.216	2.7323
132.000000	77.202	2.8299
134.000000	77.141	2.9548
136.000000	77.070	2.4978
138.000000	77.020	1.9677
140.000000	77.037	1.9426
143.000000	77.127	2.3065
145.000000	77.134	2.3236
147.500000	77.099	1.8946
150.000000	77.091	1.7088
152.500000	77.197	2.0478
155.000000	77.269	1.8425
157.500000	77.224	1.4640
160.000000	77.222	0.9079
162.500000	77.240	0.4702
165.000000	77.262	0.4798
167.500000	77.268	0.3949
170.000000	77.253	0.1968
172.500000	77.235	-0.1667
175.000000	77.185	-0.4380
177.500000	77.140	-0.7555
180.000000	77.116	-1.1703
182.500000	77.126	-1.4815
185.000000	77.131	-1.6324
187.500000	77.105	-1.7516
190.000000	77.064	-1.9532
192.500000	77.046	-2.0801
195.000000	77.043	-2.1176
197.500000	77.017	-2.1981
200.000000	76.977	-2.3925
203.000000	76.957	-2.5887
206.000000	76.938	-2.7111
209.000000	76.889	-2.7735
212.000000	76.919	-2.5946
214.000000	76.996	-2.5440
218.000000	76.999	-2.8653
220.000000	76.927	-2.9879
224.000000	76.846	-3.2837
227.000000	76.809	-3.4184
230.000000	76.757	-3.3372
233.000000	76.747	-3.4022
236.000000	76.808	-3.5651
240.000000	76.899	-3.7569
243.000000	76.857	-3.8722
247.000000	76.781	-4.0219
250.000000	76.741	-4.2303
254.000000	76.680	-4.5479
258.000000	76.636	-4.8912
262.000000	76.633	-5.0063
265.000000	76.628	-5.0429
269.000000	76.598	-5.1729
272.000000	76.564	-5.3032
276.000000	76.526	-5.3731
280.000000	76.499	-5.3588
285.000000	76.447	-5.3958
290.000000	76.401	-5.3953
295.000000	76.366	-5.3049
300.000000	76.343	-5.2268
304.000000	76.341	-5.1529
307.000000	76.346	-5.0548
311.000000	76.354	-4.8137
315.000000	76.369	-4.6468
320.000000	76.402	-4.7201
325.000000	76.439	-4.9665
330.000000	76.441	-5.2654
335.000000	76.419	-5.6211
340.000000	76.393	-5.9546
345.000000	76.362	-6.2090
350.000000	76.321	-6.4152
355.000000	76.282	-6.6083
360.000000	76.244	-6.7664
365.000000	76.206	-6.8897
370.000000	76.164	-6.9849
375.000000	76.121	-7.0809
382.000000	76.067	-7.1983
387.000000	76.035	-7.2268
395.000000	75.983	-7.2840
400.000000	75.950	-7.3601
406.000000	75.909	-7.4182
412.000000	75.868	-7.4355
418.000000	75.824	-7.4896
425.000000	75.780	-7.5272
431.000000	75.741	-7.4980
437.000000	75.697	-7.4564
444.000000	75.655	-7.4066
450.000000	75.622	-7.3831
455.000000	75.594	-7.3811
462.000000	75.552	-7.3679
468.000000	75.518	-7.3308
475.000000	75.476	-7.2579
482.000000	75.430	-7.1913
487.000000	75.398	-7.1394
494.000000	75.358	-7.0657
500.000000	75.328	-7.0045
508.000000	75.290	-6.9278
515.000000	75.254	-6.8658
522.000000	75.210	-6.7594
530.000000	75.153	-6.6028
538.000000	75.099	-6.4452
545.000000	75.063	-6.3054
552.000000	75.028	-6.1905
560.000000	74.980	-6.0539
570.000000	74.919	-5.8114
580.000000	74.860	-5.5340
590.000000	74.802	-5.3569
600.000000	74.752	-5.1655
608.000000	74.715	-4.9548
615.000000	74.676	-4.7579
622.000000	74.634	-4.5779
630.000000	74.593	-4.3635
640.000000	74.547	-4.0705
650.000000	74.501	-3.7835
660.000000	74.457	-3.4584
670.000000	74.411	-3.0753
680.000000	74.364	-2.6789
690.000000	74.321	-2.3152
700.000000	74.278	-1.9543
710.000000	74.235	-1.5890
720.000000	74.201	-1.2149
730.000000	74.171	-0.8062
740.000000	74.139	-0.3722
750.000000	74.106	0.0426
762.000000	74.070	0.5271
775.000000	74.043	1.1061
788.000000	74.017	1.7228
800.000000	73.988	2.2892
812.000000	73.958	2.8362
825.000000	73.937	3.3517
838.000000	73.927	3.9384
850.000000	73.918	4.5531
862.000000	73.908	5.1523
875.000000	73.900	5.8049
885.000000	73.895	6.2752
900.000000	73.903	6.9269
912.000000	73.912	7.4874
925.000000	73.923	8.1193
938.000000	73.945	8.6576
950.000000	73.970	9.1265
962.000000	73.994	9.6311
975.000000	74.017	10.1688
988.000000	74.042	10.6744
1000.000000	74.069	11.0704
1015.000000	74.111	11.5274
1030.000000	74.159	12.0145
1044.000000	74.204	12.4743
1060.000000	74.254	12.9399
1075.000000	74.290	13.3071
1090.000000	74.324	13.6409
1106.000000	74.370	13.9544
1120.000000	74.412	14.2275
1138.000000	74.456	14.5332
1150.000000	74.487	14.6764
1172.000000	74.545	14.8690
1180.000000	74.561	14.9400
1206.000000	74.613	15.1771
1220.000000	74.650	15.2734
1241.000000	74.708	15.4253
1250.000000	74.733	15.4901
1265.000000	74.776	15.5817
1280.000000	74.820	15.6394
1315.000000	74.902	15.7905
1320.000000	74.912	15.8167
1340.000000	74.951	15.9108
1360.000000	74.990	16.0183
1380.000000	75.032	16.1222
1400.000000	75.079	16.2128
1430.000000	75.137	16.4170
1450.000000	75.172	16.5813
1475.000000	75.222	16.7932
1500.000000	75.273	17.0048
1525.000000	75.316	17.2396
1550.000000	75.349	17.5267
1575.000000	75.375	17.7862
1600.000000	75.398	18.0174
1625.000000	75.424	18.2738
1650.000000	75.453	18.5650
1675.000000	75.487	18.8767
1700.000000	75.524	19.1903
1725.000000	75.563	19.5059
1750.000000	75.604	19.8225
1775.000000	75.649	20.1679
1800.000000	75.695	20.4955
1825.000000	75.739	20.7907
1850.000000	75.790	21.0754
1875.000000	75.846	21.3777
1900.000000	75.899	21.6884
1925.000000	75.954	21.9743
1950.000000	76.012	22.2754
1975.000000	76.068	22.5790
2000.000000	76.125	22.8783
2030.000000	76.193	23.2179
2060.000000	76.260	23.5440
2090.000000	76.326	23.8650
2120.000000	76.397	24.2441
2140.000000	76.442	24.5513
2180.000000	76.534	25.2714
2200.000000	76.593	25.6978
2240.000000	76.756	26.6511
2270.000000	76.929	27.2936
2300.000000	77.136	27.6655
2330.000000	77.353	27.6977
2360.000000	77.550	27.4449
2400.000000	77.760	26.8554
2430.000000	77.887	26.3815
2470.000000	78.038	25.7713
2500.000000	78.142	25.3313
2540.000000	78.272	24.7392
2580.000000	78.398	24.1388
2620.000000	78.514	23.5510
2650.000000	78.596	23.0842
2690.000000	78.697	22.3995
2720.000000	78.768	21.8392
2760.000000	78.852	21.0593
2800.000000	78.920	20.2379
2850.000000	78.978	19.1712
2900.000000	78.996	18.1842
2950.000000	78.982	17.4096
3000.000000	78.965	16.9721
3040.000000	78.970	16.8150
3070.000000	78.995	16.7267
3110.000000	79.052	16.5546
3150.000000	79.123	16.2606
3200.000000	79.218	15.7123
3250.000000	79.309	14.9954
3300.000000	79.383	14.1636
3350.000000	79.439	13.2211
3400.000000	79.473	12.2052
3450.000000	79.487	11.1610
3500.000000	79.476	10.1098
3550.000000	79.442	9.1055
3600.000000	79.384	8.2145
3650.000000	79.313	7.4758
3700.000000	79.247	6.9003
3750.000000	79.193	6.4152
3820.000000	79.137	5.7001
3870.000000	79.097	5.1190
3950.000000	79.017	4.1374
4000.000000	78.949	3.6012
4060.000000	78.860	3.1083
4120.000000	78.781	2.7445
4180.000000	78.715	2.4082
4250.000000	78.655	1.9688
4310.000000	78.606	1.5251
4370.000000	78.545	1.0081
4440.000000	78.457	0.3583
4500.000000	78.371	-0.2164
4550.000000	78.292	-0.6977
4620.000000	78.168	-1.3824
4680.000000	78.042	-1.9355
4750.000000	77.872	-2.4993
4820.000000	77.675	-2.9564
4870.000000	77.519	-3.1969
4940.000000	77.281	-3.3800
5000.000000	77.066	-3.3550
5080.000000	76.778	-3.0579
5150.000000	76.536	-2.5792
5220.000000	76.305	-1.9492
5300.000000	76.053	-1.1110
5380.000000	75.814	-0.1001
5450.000000	75.613	0.9119
5520.000000	75.421	2.0184
5600.000000	75.212	3.4021
5700.000000	74.979	5.3053
5800.000000	74.781	7.3469
5900.000000	74.622	9.5010
6000.000000	74.502	11.7715
6080.000000	74.434	13.6780
6150.000000	74.398	15.3940
6220.000000	74.388	17.1587
6300.000000	74.406	19.2107
6400.000000	74.479	21.7751
6500.000000	74.618	24.3399
6600.000000	74.826	26.8417
6700.000000	75.108	29.1640
6800.000000	75.473	31.2123
6900.000000	75.928	32.8686
7000.000000	76.465	33.9529
7100.000000	77.069	34.2377
7200.000000	77.722	33.5086
7300.000000	78.373	31.5250
7400.000000	78.947	28.1356
7500.000000	79.351	23.4232
7620.000000	79.507	16.6693
7750.000000	79.213	9.5115
7880.000000	78.514	4.1253
8000.000000	77.682	1.3976
8120.000000	76.842	0.7132
8250.000000	76.049	1.7613
8380.000000	75.438	3.9038
8500.000000	75.055	6.2764
8620.000000	74.832	8.6340
8750.000000	74.716	10.7656
8850.000000	74.680	11.9957
9000.000000	74.661	13.2081
9120.000000	74.633	13.7413
9250.000000	74.571	14.0841
9380.000000	74.474	14.4384
9500.000000	74.368	14.9384
9620.000000	74.263	15.6753
9750.000000	74.184	16.7320
9880.000000	74.169	17.9685
10000.000000	74.229	19.1621
10150.000000	74.409	20.5809
10300.000000	74.711	21.6923
10440.000000	75.112	22.1418
10600.000000	75.701	21.5173
10750.000000	76.343	19.3862
10900.000000	76.980	15.2536
11060.000000	77.500	8.3001
11200.000000	77.669	0.3478
11380.000000	77.345	-10.8757
11500.000000	76.784	-17.7881
11720.000000	75.229	-27.2225
11800.000000	74.570	-29.4675
12060.000000	72.403	-33.0226
12200.000000	71.334	-33.1703
12410.000000	69.946	-32.0092
12500.000000	69.425	-31.1676
12650.000000	68.640	-29.4548
12800.000000	67.954	-27.4877
13150.000000	66.710	-22.5140
13200.000000	66.566	-21.8179
13400.000000	66.061	-19.1300
13600.000000	65.676	-16.7341
13800.000000	65.419	-14.7770
14000.000000	65.261	-13.2621
14300.000000	65.055	-11.8068
14500.000000	64.875	-11.0808
14750.000000	64.634	-10.1699
15000.000000	64.465	-8.5312
15250.000000	64.512	-5.7966
15500.000000	65.086	-3.3008
15750.000000	66.199	-3.8840
16000.000000	67.413	-9.3693
16250.000000	68.831	-18.2879
16500.000000	70.779	-35.0149
16750.000000	71.738	-69.3263
17000.000000	69.871	-108.2487
17250.000000	65.367	-128.6558
17500.000000	59.791	-133.4560
17750.000000	54.567	-134.7307
18000.000000	50.171	-160.0556
18250.000000	46.456	7.6895
18500.000000	43.413	-68.2725
18750.000000	41.601	154.3623
19000.000000	40.639	138.8535
19250.000000	39.617	0.6064
19500.000000	38.470	172.7100
19750.000000	37.445	-59.9766
20000.000000	36.832	89.7344
