* Measurement data measured by REW V5.20.13
* Source: EXCL: Mic in at rear panel (Pink)(Realtek(R) Audio), MICROPHONE (마스), R, volume: 1.000
* Format: 256k Log Swept Sine, 1 sweep at -12.0 dBFS with no timing reference
* Dated: 2023. 2. 14 오후 9:55:34
* REW Settings:
*  C-weighting compensation: Off
*  Target level: 75.0 dB
* Note: 
* Measurement: R_TRI
* Smoothing: 1/24 octave
* Frequency Step: 1/48 octave
* Start Frequency: 20.300 Hz
*
* Freq(Hz)	SPL(dB)	Phase(degrees)
20.299999	95.899	-162.5310
20.600000	95.907	-162.8165
20.900000	95.922	-163.3415
21.200001	95.931	-163.8810
21.400000	95.932	-164.2452
21.799999	95.922	-164.9860
22.000000	95.912	-165.3575
22.400000	95.885	-166.0812
22.700001	95.862	-166.6063
23.000000	95.838	-167.1213
23.299999	95.815	-167.6230
23.600000	95.794	-168.1071
24.000000	95.775	-168.7266
24.299999	95.770	-169.1878
24.700001	95.773	-169.8335
25.000000	95.778	-170.3591
25.400000	95.781	-171.1063
25.799999	95.773	-171.8475
26.200001	95.756	-172.5082
26.500000	95.742	-172.9310
26.900000	95.730	-173.4193
27.200001	95.726	-173.7690
27.600000	95.726	-174.2657
28.000000	95.723	-174.8207
28.500000	95.704	-175.5519
29.000000	95.666	-176.2321
29.500000	95.619	-176.8205
30.000000	95.574	-177.3485
30.400000	95.540	-177.7556
30.700001	95.514	-178.0542
31.100000	95.482	-178.4364
31.500000	95.455	-178.8005
32.000000	95.432	-179.2628
32.500000	95.421	-179.7989
33.000000	95.412	179.5535
33.500000	95.392	178.8387
34.000000	95.357	178.1656
34.500000	95.313	177.6263
35.000000	95.277	177.2261
35.500000	95.259	176.8831
36.000000	95.254	176.4991
36.500000	95.248	176.0398
37.000000	95.231	175.5519
37.500000	95.202	175.1006
38.200001	95.154	174.5439
38.700001	95.118	174.1458
39.500000	95.042	173.5117
40.000000	94.987	173.2010
40.599998	94.934	172.9188
41.200001	94.904	172.5943
41.799999	94.881	172.1266
42.500000	94.841	171.4834
43.099998	94.797	170.9820
43.700001	94.755	170.5466
44.400002	94.711	170.0781
45.000000	94.671	169.7134
45.500000	94.638	169.4528
46.200001	94.596	169.1432
46.799999	94.567	168.8918
47.500000	94.537	168.5606
48.200001	94.506	168.1542
48.700001	94.477	167.8263
49.400002	94.427	167.3577
50.000000	94.378	166.9711
50.799999	94.308	166.4889
51.500000	94.245	166.1429
52.200001	94.192	165.9028
53.000000	94.161	165.6585
53.799999	94.146	165.2797
54.500000	94.122	164.8483
55.200001	94.080	164.4429
56.000000	94.023	164.0797
57.000000	93.950	163.6791
58.000000	93.857	163.3188
59.000000	93.760	163.1590
60.000000	93.700	163.0418
60.799999	93.666	162.7571
61.500000	93.628	162.4180
62.200001	93.581	162.0992
63.000000	93.528	161.7795
64.000000	93.467	161.4144
65.000000	93.408	161.0315
66.000000	93.330	160.6506
67.000000	93.239	160.4585
68.000000	93.164	160.3951
69.000000	93.103	160.3154
70.000000	93.048	160.1682
71.000000	92.990	159.9846
72.000000	92.937	159.7953
73.000000	92.886	159.5094
74.000000	92.819	159.2057
75.000000	92.748	159.0069
76.199997	92.680	158.7654
77.500000	92.593	158.3741
78.800003	92.474	158.1677
80.000000	92.387	158.1743
81.199997	92.316	158.0661
82.500000	92.210	157.9391
83.800003	92.107	158.0792
85.000000	92.048	158.1479
86.199997	91.987	158.0339
87.500000	91.911	157.8382
88.500000	91.845	157.6900
90.000000	91.755	157.5867
91.199997	91.706	157.5765
92.500000	91.672	157.5638
93.800003	91.636	157.5112
95.000000	91.576	157.4737
96.199997	91.481	157.6678
97.500000	91.395	158.2164
98.800003	91.360	158.7350
100.000000	91.348	158.9349
101.500000	91.301	158.9848
103.000000	91.243	159.3072
104.400002	91.228	159.6699
106.000000	91.232	159.8002
107.500000	91.223	159.6664
109.000000	91.211	159.3960
110.599998	91.196	159.0956
112.000000	91.188	158.9467
113.800003	91.156	158.7930
115.000000	91.098	158.7046
117.199997	90.909	158.3646
118.000000	90.804	158.2198
120.599998	90.583	158.9255
122.000000	90.663	158.7858
124.099998	90.720	157.9277
125.000000	90.722	157.7455
126.500000	90.710	157.6296
128.000000	90.671	157.6303
131.500000	90.531	157.5980
132.000000	90.509	157.5759
134.000000	90.422	157.5621
136.000000	90.346	157.6611
138.000000	90.270	157.7697
140.000000	90.197	157.8763
143.000000	90.130	157.9104
145.000000	90.080	157.9396
147.500000	89.985	158.2076
150.000000	89.882	158.4436
152.500000	89.790	158.3315
155.000000	89.727	158.2850
157.500000	89.687	158.5095
160.000000	89.620	158.8341
162.500000	89.532	159.0571
165.000000	89.464	159.1078
167.500000	89.412	159.1184
170.000000	89.348	159.2958
172.500000	89.275	159.6094
175.000000	89.212	159.9575
177.500000	89.159	160.2706
180.000000	89.099	160.5349
182.500000	89.031	160.7030
185.000000	88.962	160.8073
187.500000	88.897	160.9829
190.000000	88.835	161.2827
192.500000	88.775	161.5798
195.000000	88.721	161.8024
197.500000	88.680	162.0220
200.000000	88.642	162.2734
203.000000	88.589	162.6057
206.000000	88.533	162.9115
209.000000	88.471	163.2813
212.000000	88.418	163.7196
214.000000	88.395	164.0416
218.000000	88.366	164.8451
220.000000	88.345	165.2466
224.000000	88.309	165.9041
227.000000	88.313	166.3384
230.000000	88.323	166.7940
233.000000	88.330	167.1700
236.000000	88.336	167.4393
240.000000	88.339	167.6436
243.000000	88.318	167.6675
247.000000	88.284	167.6862
250.000000	88.257	167.6735
254.000000	88.216	167.7606
258.000000	88.166	167.9314
262.000000	88.107	168.1272
265.000000	88.074	168.2537
269.000000	88.040	168.4434
272.000000	88.014	168.6843
276.000000	87.979	169.0543
280.000000	87.947	169.3044
285.000000	87.908	169.6587
290.000000	87.863	170.0910
295.000000	87.821	170.4547
300.000000	87.788	170.8334
304.000000	87.763	171.1763
307.000000	87.743	171.4322
311.000000	87.715	171.7600
315.000000	87.688	172.0745
320.000000	87.664	172.4573
325.000000	87.643	172.8346
330.000000	87.622	173.2401
335.000000	87.597	173.6516
340.000000	87.572	174.0333
345.000000	87.547	174.3925
350.000000	87.519	174.7859
355.000000	87.490	175.2120
360.000000	87.469	175.6205
365.000000	87.448	176.0004
370.000000	87.426	176.3876
375.000000	87.403	176.7938
382.000000	87.369	177.3303
387.000000	87.346	177.6940
395.000000	87.309	178.2747
400.000000	87.289	178.6619
406.000000	87.268	179.1388
412.000000	87.248	179.5930
418.000000	87.229	-179.9485
425.000000	87.208	-179.4195
431.000000	87.194	-179.0123
437.000000	87.183	-178.6126
444.000000	87.171	-178.1284
450.000000	87.162	-177.6982
455.000000	87.156	-177.3388
462.000000	87.144	-176.8369
468.000000	87.134	-176.4128
475.000000	87.128	-175.9201
482.000000	87.126	-175.4427
487.000000	87.123	-175.1037
494.000000	87.117	-174.6179
500.000000	87.115	-174.2054
508.000000	87.115	-173.6599
515.000000	87.114	-173.1810
522.000000	87.111	-172.6946
530.000000	87.108	-172.1511
538.000000	87.109	-171.6078
545.000000	87.111	-171.1406
552.000000	87.115	-170.6869
560.000000	87.121	-170.1622
570.000000	87.124	-169.4878
580.000000	87.127	-168.8217
590.000000	87.135	-168.1804
600.000000	87.143	-167.5231
608.000000	87.150	-166.9932
615.000000	87.156	-166.5438
622.000000	87.162	-166.1046
630.000000	87.169	-165.5996
640.000000	87.177	-164.9420
650.000000	87.189	-164.2698
660.000000	87.206	-163.6175
670.000000	87.226	-162.9722
680.000000	87.247	-162.3359
690.000000	87.265	-161.7141
700.000000	87.284	-161.0708
710.000000	87.307	-160.4185
720.000000	87.331	-159.7871
730.000000	87.355	-159.1518
740.000000	87.380	-158.5159
750.000000	87.405	-157.8877
762.000000	87.436	-157.1345
775.000000	87.466	-156.3342
788.000000	87.479	-155.5208
800.000000	87.477	-154.5459
812.000000	87.513	-153.2597
825.000000	87.642	-152.0545
838.000000	87.747	-151.4077
850.000000	87.781	-150.6923
862.000000	87.823	-149.4692
875.000000	87.996	-147.9476
885.000000	88.191	-147.3773
900.000000	88.383	-147.3298
912.000000	88.460	-147.2068
925.000000	88.534	-146.8349
938.000000	88.615	-146.3366
950.000000	88.698	-145.8658
962.000000	88.786	-145.4098
975.000000	88.883	-144.9214
988.000000	88.983	-144.4458
1000.000000	89.081	-144.0294
1015.000000	89.209	-143.5863
1030.000000	89.339	-143.1847
1044.000000	89.463	-142.8322
1060.000000	89.604	-142.4778
1075.000000	89.733	-142.1903
1090.000000	89.865	-141.9468
1106.000000	90.014	-141.7214
1120.000000	90.146	-141.5574
1138.000000	90.314	-141.4107
1150.000000	90.423	-141.3407
1172.000000	90.620	-141.2424
1180.000000	90.691	-141.2154
1206.000000	90.916	-141.1732
1220.000000	91.035	-141.1841
1241.000000	91.209	-141.2378
1250.000000	91.281	-141.2732
1265.000000	91.400	-141.3397
1280.000000	91.516	-141.4102
1315.000000	91.780	-141.6422
1320.000000	91.816	-141.6798
1340.000000	91.957	-141.8351
1360.000000	92.093	-142.0132
1380.000000	92.227	-142.2123
1400.000000	92.363	-142.4287
1430.000000	92.563	-142.7797
1450.000000	92.695	-143.0284
1475.000000	92.857	-143.3696
1500.000000	93.015	-143.7435
1525.000000	93.170	-144.1420
1550.000000	93.323	-144.5625
1575.000000	93.474	-145.0137
1600.000000	93.621	-145.4954
1625.000000	93.766	-146.0120
1650.000000	93.909	-146.5684
1675.000000	94.049	-147.1586
1700.000000	94.185	-147.7816
1725.000000	94.315	-148.4389
1750.000000	94.440	-149.1282
1775.000000	94.559	-149.8447
1800.000000	94.672	-150.5925
1825.000000	94.781	-151.3755
1850.000000	94.884	-152.1946
1875.000000	94.981	-153.0456
1900.000000	95.070	-153.9229
1925.000000	95.151	-154.8193
1950.000000	95.224	-155.7309
1975.000000	95.289	-156.6613
2000.000000	95.344	-157.6139
2030.000000	95.399	-158.7675
2060.000000	95.442	-159.9156
2090.000000	95.472	-161.0625
2120.000000	95.488	-162.2029
2140.000000	95.493	-162.9540
2180.000000	95.487	-164.4273
2200.000000	95.474	-165.1440
2240.000000	95.433	-166.5160
2270.000000	95.388	-167.4918
2300.000000	95.332	-168.4142
2330.000000	95.268	-169.2612
2360.000000	95.197	-170.0222
2400.000000	95.095	-170.9012
2430.000000	95.015	-171.4463
2470.000000	94.915	-171.9968
2500.000000	94.851	-172.2879
2540.000000	94.789	-172.5882
2580.000000	94.756	-172.9290
2620.000000	94.738	-173.4052
2650.000000	94.724	-173.8562
2690.000000	94.691	-174.5420
2720.000000	94.653	-175.0664
2760.000000	94.585	-175.7133
2800.000000	94.504	-176.2654
2850.000000	94.398	-176.7994
2900.000000	94.301	-177.1752
2950.000000	94.218	-177.4658
3000.000000	94.146	-177.7380
3040.000000	94.094	-177.9597
3070.000000	94.055	-178.1299
3110.000000	94.004	-178.3496
3150.000000	93.954	-178.5501
3200.000000	93.892	-178.7747
3250.000000	93.831	-178.9646
3300.000000	93.772	-179.1160
3350.000000	93.717	-179.2292
3400.000000	93.671	-179.3169
3450.000000	93.638	-179.3828
3500.000000	93.616	-179.4294
3550.000000	93.603	-179.4671
3600.000000	93.600	-179.5099
3650.000000	93.607	-179.5664
3700.000000	93.622	-179.6512
3750.000000	93.646	-179.7811
3820.000000	93.686	179.9232
3870.000000	93.714	179.6228
3950.000000	93.751	179.0045
4000.000000	93.770	178.5297
4060.000000	93.789	177.8889
4120.000000	93.800	177.1633
4180.000000	93.802	176.3505
4250.000000	93.789	175.3173
4310.000000	93.758	174.3720
4370.000000	93.704	173.3779
4440.000000	93.615	172.1586
4500.000000	93.518	171.0660
4550.000000	93.422	170.1382
4620.000000	93.262	168.8280
4680.000000	93.098	167.6995
4750.000000	92.868	166.3907
4820.000000	92.582	165.1078
4870.000000	92.323	164.2614
4940.000000	91.837	163.6397
5000.000000	91.336	164.6459
5080.000000	91.010	168.5477
5150.000000	91.245	170.4956
5220.000000	91.422	169.5405
5300.000000	91.300	167.7562
5380.000000	91.014	166.7953
5450.000000	90.740	166.5455
5520.000000	90.472	166.6479
5600.000000	90.181	167.0572
5700.000000	89.842	167.9149
5800.000000	89.537	169.0649
5900.000000	89.269	170.4550
6000.000000	89.043	172.0337
6080.000000	88.891	173.4090
6150.000000	88.783	174.6727
6220.000000	88.700	175.9739
6300.000000	88.634	177.5017
6400.000000	88.594	179.4583
6500.000000	88.605	-178.5637
6600.000000	88.668	-176.6155
6700.000000	88.788	-174.7232
6800.000000	88.969	-172.9259
6900.000000	89.231	-171.2780
7000.000000	89.577	-169.8293
7100.000000	90.000	-168.6539
7200.000000	90.495	-167.8684
7300.000000	91.059	-167.6144
7400.000000	91.685	-168.0351
7500.000000	92.363	-169.3086
7620.000000	93.220	-172.2937
7750.000000	94.095	-177.6965
7880.000000	94.697	174.5426
8000.000000	94.890	165.8004
8120.000000	94.678	156.6783
8250.000000	94.023	147.8384
8380.000000	93.055	141.0873
8500.000000	92.028	136.9274
8620.000000	90.979	134.5280
8750.000000	89.890	133.4745
8850.000000	89.115	133.4909
9000.000000	88.080	134.4807
9120.000000	87.374	135.8377
9250.000000	86.731	137.6780
9380.000000	86.208	139.7412
9500.000000	85.831	141.7065
9620.000000	85.556	143.6229
9750.000000	85.369	145.5305
9880.000000	85.292	147.1482
10000.000000	85.318	148.2459
10150.000000	85.475	148.8679
10300.000000	85.749	148.3572
10440.000000	86.076	146.5068
10600.000000	86.453	142.3568
10750.000000	86.693	136.2693
10900.000000	86.699	128.2336
11060.000000	86.338	118.3160
11200.000000	85.684	109.4454
11380.000000	84.449	98.8509
11500.000000	83.462	92.3881
11720.000000	81.468	80.3259
11800.000000	80.672	75.2780
12060.000000	77.434	53.7800
12200.000000	74.976	36.1540
12410.000000	69.917	-14.7932
12500.000000	67.412	-51.3145
12650.000000	64.483	-121.2093
12800.000000	63.825	-174.1632
13150.000000	60.468	165.6608
13200.000000	59.869	169.8562
13400.000000	58.392	-168.2591
13600.000000	58.518	-143.7872
13800.000000	60.067	-121.1184
14000.000000	62.465	-103.4768
14300.000000	66.575	-88.3338
14500.000000	69.224	-86.1724
14750.000000	71.788	-92.5024
15000.000000	73.008	-104.9435
15250.000000	72.977	-115.5939
15500.000000	72.404	-120.1309
15750.000000	71.995	-119.8362
16000.000000	71.998	-117.4195
16250.000000	72.393	-115.0112
16500.000000	73.043	-114.3232
16750.000000	73.684	-116.4296
17000.000000	73.943	-120.9703
17250.000000	73.614	-124.9343
17500.000000	72.960	-124.3690
17750.000000	72.757	-118.5767
18000.000000	73.676	-111.4342
18250.000000	75.479	-108.0927
18500.000000	77.430	-111.4052
18750.000000	79.039	-121.2661
19000.000000	80.105	-136.3708
19250.000000	80.450	-155.9465
19500.000000	79.780	-177.9035
19750.000000	78.045	163.5161
20000.000000	76.321	154.3007
