* Measurement data measured by REW V5.20.13
* Source: EXCL: Mic in at rear panel (Pink)(Realtek(R) Audio), MICROPHONE (마스), L, volume: 0.500
* Format: 256k Log Swept Sine, 1 sweep at -12.0 dBFS with no timing reference
* Dated: 2022. 10. 1 오후 5:28:23
* REW Settings:
*  C-weighting compensation: Off
*  Target level: 75.0 dB
* Note: 
* Measurement: L_Sedna
* Smoothing: 1/24 octave
* Frequency Step: 1/48 octave
* Start Frequency: 20.300 Hz
*
* Freq(Hz)	SPL(dB)	Phase(degrees)
20.299999	83.890	-169.6623
20.600000	83.890	-169.8533
20.900000	83.890	-170.1988
21.200001	83.888	-170.5427
21.400000	83.885	-170.7787
21.799999	83.871	-171.2852
22.000000	83.861	-171.5570
22.400000	83.835	-172.1186
22.700001	83.812	-172.5455
23.000000	83.790	-172.9772
23.299999	83.769	-173.4163
23.600000	83.750	-173.8625
24.000000	83.727	-174.4612
24.299999	83.713	-174.9012
24.700001	83.697	-175.4596
25.000000	83.689	-175.8509
25.400000	83.685	-176.3380
25.799999	83.689	-176.7972
26.200001	83.699	-177.2436
26.500000	83.709	-177.5788
26.900000	83.723	-178.0361
27.200001	83.730	-178.3925
27.600000	83.733	-178.8860
28.000000	83.726	-179.3845
28.500000	83.702	-179.9660
29.000000	83.666	179.5468
29.500000	83.630	179.1390
30.000000	83.600	178.7368
30.400000	83.577	178.3831
30.700001	83.558	178.1031
31.100000	83.528	177.7346
31.500000	83.498	177.3883
32.000000	83.467	176.9688
32.500000	83.445	176.5041
33.000000	83.423	175.9700
33.500000	83.394	175.4277
34.000000	83.361	174.9633
34.500000	83.334	174.5894
35.000000	83.320	174.2432
35.500000	83.311	173.8669
36.000000	83.299	173.4727
36.500000	83.282	173.1069
37.000000	83.264	172.7817
37.500000	83.250	172.4588
38.200001	83.222	171.9503
38.700001	83.191	171.5722
39.500000	83.127	171.0439
40.000000	83.089	170.7534
40.599998	83.050	170.3975
41.200001	83.014	170.0129
41.799999	82.980	169.6007
42.500000	82.941	169.0911
43.099998	82.905	168.6696
43.700001	82.873	168.3055
44.400002	82.847	167.9105
45.000000	82.829	167.5329
45.500000	82.808	167.2148
46.200001	82.773	166.8450
46.799999	82.751	166.5703
47.500000	82.726	166.1788
48.200001	82.684	165.7593
48.700001	82.645	165.5284
49.400002	82.598	165.3000
50.000000	82.568	165.0906
50.799999	82.527	164.7292
51.500000	82.482	164.4151
52.200001	82.439	164.1521
53.000000	82.400	163.8535
53.799999	82.362	163.5015
54.500000	82.322	163.2082
55.200001	82.287	162.9603
56.000000	82.256	162.6388
57.000000	82.204	162.1750
58.000000	82.144	161.8369
59.000000	82.097	161.4851
60.000000	82.036	161.0592
60.799999	81.978	160.7567
61.500000	81.928	160.5346
62.200001	81.882	160.3370
63.000000	81.837	160.0923
64.000000	81.776	159.7482
65.000000	81.712	159.4783
66.000000	81.662	159.2331
67.000000	81.614	158.9218
68.000000	81.558	158.6272
69.000000	81.502	158.3644
70.000000	81.445	158.0959
71.000000	81.386	157.8458
72.000000	81.330	157.6064
73.000000	81.276	157.3327
74.000000	81.216	157.0414
75.000000	81.149	156.8185
76.199997	81.078	156.6294
77.500000	81.006	156.4278
78.800003	80.933	156.2534
80.000000	80.868	156.1241
81.199997	80.811	155.9692
82.500000	80.746	155.7464
83.800003	80.681	155.5370
85.000000	80.627	155.3600
86.199997	80.581	155.1459
87.500000	80.522	154.8647
88.500000	80.466	154.6856
90.000000	80.381	154.5043
91.199997	80.316	154.3759
92.500000	80.252	154.2532
93.800003	80.196	154.0922
95.000000	80.143	153.9134
96.199997	80.087	153.7476
97.500000	80.022	153.6000
98.800003	79.955	153.4912
100.000000	79.890	153.4105
101.500000	79.809	153.3094
103.000000	79.729	153.1940
104.400002	79.656	153.0701
106.000000	79.575	152.9476
107.500000	79.504	152.8710
109.000000	79.436	152.8140
110.599998	79.365	152.7490
112.000000	79.299	152.6768
113.800003	79.212	152.6235
115.000000	79.158	152.6279
117.199997	79.068	152.6936
118.000000	79.038	152.7220
120.599998	78.921	152.6401
122.000000	78.822	152.6723
124.099998	78.678	152.9576
125.000000	78.623	153.1074
126.500000	78.538	153.3734
128.000000	78.460	153.6917
131.500000	78.359	154.6973
132.000000	78.358	154.8309
134.000000	78.374	155.2531
136.000000	78.410	155.4019
138.000000	78.428	155.2725
140.000000	78.416	155.0407
143.000000	78.360	154.8270
145.000000	78.320	154.7963
147.500000	78.263	154.7331
150.000000	78.196	154.6469
152.500000	78.131	154.5214
155.000000	78.063	154.4127
157.500000	77.997	154.3410
160.000000	77.930	154.2762
162.500000	77.859	154.2390
165.000000	77.786	154.2305
167.500000	77.712	154.2458
170.000000	77.638	154.2939
172.500000	77.565	154.3745
175.000000	77.492	154.4685
177.500000	77.416	154.5640
180.000000	77.337	154.6566
182.500000	77.263	154.7376
185.000000	77.197	154.8123
187.500000	77.136	154.9133
190.000000	77.078	155.0590
192.500000	77.020	155.2240
195.000000	76.959	155.3734
197.500000	76.899	155.5147
200.000000	76.844	155.6409
203.000000	76.776	155.8406
206.000000	76.706	156.1213
209.000000	76.635	156.4075
212.000000	76.567	156.6817
214.000000	76.525	156.8615
218.000000	76.453	157.1819
220.000000	76.422	157.3317
224.000000	76.356	157.6747
227.000000	76.302	157.9554
230.000000	76.255	158.2574
233.000000	76.223	158.5663
236.000000	76.197	158.7906
240.000000	76.153	158.9423
243.000000	76.110	159.0714
247.000000	76.037	159.3244
250.000000	75.985	159.4988
254.000000	75.929	159.7234
258.000000	75.871	159.9860
262.000000	75.805	160.3172
265.000000	75.755	160.5804
269.000000	75.695	160.8517
272.000000	75.653	161.0236
276.000000	75.599	161.3153
280.000000	75.551	161.6418
285.000000	75.502	162.0292
290.000000	75.449	162.4553
295.000000	75.389	162.8344
300.000000	75.333	163.1809
304.000000	75.298	163.4736
307.000000	75.272	163.7140
311.000000	75.234	164.0668
315.000000	75.198	164.3949
320.000000	75.154	164.7686
325.000000	75.107	165.2150
330.000000	75.070	165.6573
335.000000	75.031	166.0671
340.000000	74.990	166.4702
345.000000	74.950	166.8415
350.000000	74.907	167.2033
355.000000	74.865	167.5598
360.000000	74.830	167.9312
365.000000	74.796	168.3263
370.000000	74.763	168.7351
375.000000	74.730	169.1242
382.000000	74.680	169.6409
387.000000	74.637	170.0083
395.000000	74.584	170.5845
400.000000	74.552	170.9778
406.000000	74.507	171.4582
412.000000	74.469	171.8956
418.000000	74.437	172.3203
425.000000	74.399	172.8370
431.000000	74.369	173.2797
437.000000	74.348	173.7438
444.000000	74.323	174.2827
450.000000	74.297	174.6989
455.000000	74.277	175.0424
462.000000	74.247	175.5334
468.000000	74.222	175.9479
475.000000	74.196	176.4420
482.000000	74.171	176.9477
487.000000	74.158	177.3095
494.000000	74.143	177.8157
500.000000	74.125	178.2275
508.000000	74.098	178.7585
515.000000	74.075	179.2132
522.000000	74.058	179.6725
530.000000	74.045	-179.7609
538.000000	74.028	-179.2003
545.000000	74.015	-178.7182
552.000000	74.006	-178.2295
560.000000	73.992	-177.6704
570.000000	73.966	-176.9528
580.000000	73.938	-176.2434
590.000000	73.917	-175.5860
600.000000	73.908	-174.8998
608.000000	73.902	-174.3195
615.000000	73.895	-173.7985
622.000000	73.885	-173.2858
630.000000	73.873	-172.7283
640.000000	73.866	-172.0280
650.000000	73.864	-171.2892
660.000000	73.866	-170.5659
670.000000	73.869	-169.8950
680.000000	73.870	-169.2213
690.000000	73.876	-168.5138
700.000000	73.882	-167.8166
710.000000	73.885	-167.1201
720.000000	73.892	-166.4302
730.000000	73.900	-165.7458
740.000000	73.911	-165.0325
750.000000	73.927	-164.3168
762.000000	73.951	-163.5042
775.000000	73.973	-162.6376
788.000000	74.002	-161.7558
800.000000	74.035	-160.9363
812.000000	74.070	-160.1605
825.000000	74.115	-159.3073
838.000000	74.167	-158.4486
850.000000	74.210	-157.6625
862.000000	74.251	-156.8745
875.000000	74.303	-156.0710
885.000000	74.348	-155.4886
900.000000	74.425	-154.6304
912.000000	74.489	-153.9340
925.000000	74.563	-153.1718
938.000000	74.639	-152.4443
950.000000	74.708	-151.8219
962.000000	74.781	-151.2555
975.000000	74.866	-150.6833
988.000000	74.950	-150.1076
1000.000000	75.030	-149.5746
1015.000000	75.141	-148.9903
1030.000000	75.249	-148.4498
1044.000000	75.346	-147.9672
1060.000000	75.457	-147.4646
1075.000000	75.561	-147.0428
1090.000000	75.665	-146.6540
1106.000000	75.788	-146.2801
1120.000000	75.901	-145.9685
1138.000000	76.035	-145.5981
1150.000000	76.120	-145.3846
1172.000000	76.276	-145.0667
1180.000000	76.333	-144.9710
1206.000000	76.513	-144.6454
1220.000000	76.603	-144.4915
1241.000000	76.738	-144.3078
1250.000000	76.796	-144.2373
1265.000000	76.892	-144.1282
1280.000000	76.985	-144.0083
1315.000000	77.186	-143.7272
1320.000000	77.213	-143.6918
1340.000000	77.322	-143.5733
1360.000000	77.428	-143.4740
1380.000000	77.532	-143.3715
1400.000000	77.640	-143.2727
1430.000000	77.804	-143.1343
1450.000000	77.907	-143.0369
1475.000000	78.033	-142.9233
1500.000000	78.162	-142.8223
1525.000000	78.291	-142.7365
1550.000000	78.420	-142.6967
1575.000000	78.544	-142.6650
1600.000000	78.667	-142.6185
1625.000000	78.788	-142.5893
1650.000000	78.909	-142.5830
1675.000000	79.029	-142.5893
1700.000000	79.146	-142.6152
1725.000000	79.262	-142.6541
1750.000000	79.376	-142.6870
1775.000000	79.489	-142.7280
1800.000000	79.603	-142.8043
1825.000000	79.718	-142.8927
1850.000000	79.832	-142.9835
1875.000000	79.946	-143.0857
1900.000000	80.058	-143.2142
1925.000000	80.167	-143.3694
1950.000000	80.275	-143.5334
1975.000000	80.386	-143.7171
2000.000000	80.496	-143.9255
2030.000000	80.627	-144.2009
2060.000000	80.756	-144.4872
2090.000000	80.884	-144.8025
2120.000000	81.008	-145.1727
2140.000000	81.089	-145.4384
2180.000000	81.252	-145.9870
2200.000000	81.330	-146.2770
2240.000000	81.478	-146.8954
2270.000000	81.586	-147.4019
2300.000000	81.691	-147.9338
2330.000000	81.793	-148.4840
2360.000000	81.890	-149.0612
2400.000000	82.011	-149.8737
2430.000000	82.097	-150.5080
2470.000000	82.206	-151.3812
2500.000000	82.282	-152.0474
2540.000000	82.376	-152.9585
2580.000000	82.462	-153.8860
2620.000000	82.538	-154.8358
2650.000000	82.588	-155.5631
2690.000000	82.645	-156.5300
2720.000000	82.681	-157.2473
2760.000000	82.722	-158.2091
2800.000000	82.753	-159.1689
2850.000000	82.778	-160.3422
2900.000000	82.788	-161.4739
2950.000000	82.785	-162.5619
3000.000000	82.769	-163.5738
3040.000000	82.748	-164.3071
3070.000000	82.729	-164.8026
3110.000000	82.707	-165.3759
3150.000000	82.696	-165.8688
3200.000000	82.703	-166.4659
3250.000000	82.727	-167.1614
3300.000000	82.750	-167.9999
3350.000000	82.755	-168.9297
3400.000000	82.742	-169.8749
3450.000000	82.720	-170.7752
3500.000000	82.695	-171.6287
3550.000000	82.667	-172.4283
3600.000000	82.634	-173.1782
3650.000000	82.598	-173.8856
3700.000000	82.562	-174.5514
3750.000000	82.525	-175.1930
3820.000000	82.474	-176.0673
3870.000000	82.433	-176.6902
3950.000000	82.355	-177.6514
4000.000000	82.302	-178.2356
4060.000000	82.234	-178.9305
4120.000000	82.164	-179.6216
4180.000000	82.091	179.6980
4250.000000	81.999	178.9338
4310.000000	81.909	178.3038
4370.000000	81.804	177.7015
4440.000000	81.672	177.0434
4500.000000	81.557	176.5276
4550.000000	81.464	176.1003
4620.000000	81.336	175.4320
4680.000000	81.216	174.7749
4750.000000	81.046	173.9564
4820.000000	80.836	173.2183
4870.000000	80.663	172.8291
4940.000000	80.399	172.5801
5000.000000	80.175	172.6575
5080.000000	79.908	173.0768
5150.000000	79.713	173.6042
5220.000000	79.550	174.1309
5300.000000	79.389	174.6689
5380.000000	79.240	175.1750
5450.000000	79.115	175.6119
5520.000000	78.991	176.0634
5600.000000	78.851	176.6094
5700.000000	78.687	177.3820
5800.000000	78.540	178.2758
5900.000000	78.414	179.2477
6000.000000	78.311	-179.7223
6080.000000	78.249	-178.8618
6150.000000	78.210	-178.0830
6220.000000	78.186	-177.2948
6300.000000	78.176	-176.4007
6400.000000	78.191	-175.2958
6500.000000	78.234	-174.2100
6600.000000	78.306	-173.1450
6700.000000	78.414	-172.1132
6800.000000	78.572	-171.1664
6900.000000	78.794	-170.3815
7000.000000	79.077	-169.8061
7100.000000	79.405	-169.4916
7200.000000	79.771	-169.4852
7300.000000	80.173	-169.8391
7400.000000	80.609	-170.6079
7500.000000	81.081	-171.8905
7620.000000	81.705	-174.3739
7750.000000	82.385	-178.6830
7880.000000	82.877	175.0061
8000.000000	83.048	167.6787
8120.000000	82.887	159.7609
8250.000000	82.340	151.7291
8380.000000	81.494	145.2080
8500.000000	80.556	140.8700
8620.000000	79.557	138.0555
8750.000000	78.471	136.4355
8850.000000	77.662	135.9963
9000.000000	76.526	136.3248
9120.000000	75.694	137.2491
9250.000000	74.868	138.7534
9380.000000	74.120	140.6399
9500.000000	73.497	142.6342
9620.000000	72.934	144.7869
9750.000000	72.384	147.2255
9880.000000	71.897	149.7502
10000.000000	71.495	152.1473
10150.000000	71.050	155.2106
10300.000000	70.670	158.3301
10440.000000	70.365	161.2162
10600.000000	70.067	164.4608
10750.000000	69.829	167.4503
10900.000000	69.626	170.3572
11060.000000	69.451	173.4187
11200.000000	69.334	176.0995
11380.000000	69.223	179.6041
11500.000000	69.182	-178.0283
11720.000000	69.209	-173.6845
11800.000000	69.257	-172.1490
12060.000000	69.546	-167.5122
12200.000000	69.783	-165.2837
12410.000000	70.250	-162.5334
12500.000000	70.495	-161.7183
12650.000000	70.957	-161.0701
12800.000000	71.465	-161.4570
13150.000000	72.540	-167.2169
13200.000000	72.644	-168.6214
13400.000000	72.827	-175.2620
13600.000000	72.595	177.5971
13800.000000	71.994	171.4487
14000.000000	71.160	167.1920
14300.000000	69.804	164.3264
14500.000000	68.976	164.0791
14750.000000	68.083	164.7066
15000.000000	67.343	165.7538
15250.000000	66.734	166.8736
15500.000000	66.259	167.8803
15750.000000	65.914	168.7209
16000.000000	65.649	169.2791
16250.000000	65.441	169.2874
16500.000000	65.276	168.1694
16750.000000	65.059	164.8001
17000.000000	64.382	158.7747
17250.000000	62.595	159.0481
17500.000000	61.113	171.3997
17750.000000	61.303	178.7505
18000.000000	61.476	-179.6485
18250.000000	61.413	-178.3446
18500.000000	61.334	-176.5421
18750.000000	61.323	-174.8629
19000.000000	61.392	-173.8084
19250.000000	61.473	-173.6976
19500.000000	61.479	-174.8062
19750.000000	61.389	-176.9064
20000.000000	61.253	-178.7520
