* Measurement data measured by REW V5.20.13
* Source: Input device not selected, no input selected, L, volume: no control
* Format: 256k Log Swept Sine, 1 sweep at -12.0 dBFS with no timing reference
* Dated: 2022. 10. 2 ¿ÀÈÄ 8:10:01
* REW Settings:
*  C-weighting compensation: Off
*  Target level: 75.0 dB
* Note: 
* Measurement: L_Steel_AEX70
* Smoothing: 1/24 octave
* Frequency Step: 1/48 octave
* Start Frequency: 20.300 Hz
*
* Freq(Hz)	SPL(dB)	Phase(degrees)
20.299999	84.035	-170.2767
20.600000	84.030	-170.5200
20.900000	84.017	-170.9362
21.200001	83.998	-171.2832
21.400000	83.984	-171.4783
21.799999	83.957	-171.8250
22.000000	83.947	-171.9984
22.400000	83.938	-172.3827
22.700001	83.940	-172.7466
23.000000	83.946	-173.2121
23.299999	83.946	-173.7755
23.600000	83.936	-174.4003
24.000000	83.903	-175.2367
24.299999	83.868	-175.7896
24.700001	83.819	-176.3748
25.000000	83.793	-176.7159
25.400000	83.778	-177.1105
25.799999	83.779	-177.5174
26.200001	83.786	-177.9560
26.500000	83.789	-178.2798
26.900000	83.792	-178.6710
27.200001	83.797	-178.9342
27.600000	83.809	-179.2807
28.000000	83.822	-179.6736
28.500000	83.824	179.7618
29.000000	83.801	179.2140
29.500000	83.761	178.7744
30.000000	83.721	178.4259
30.400000	83.692	178.1623
30.700001	83.672	177.9611
31.100000	83.646	177.6934
31.500000	83.626	177.4240
32.000000	83.612	177.0350
32.500000	83.605	176.5083
33.000000	83.586	175.8572
33.500000	83.545	175.2223
34.000000	83.498	174.7426
34.500000	83.470	174.3936
35.000000	83.468	174.0280
35.500000	83.473	173.5445
36.000000	83.466	173.0038
36.500000	83.444	172.5381
37.000000	83.426	172.1972
37.500000	83.423	171.8944
38.200001	83.430	171.3206
38.700001	83.416	170.8069
39.500000	83.349	170.1312
40.000000	83.304	169.8925
40.599998	83.269	169.6767
41.200001	83.246	169.3719
41.799999	83.214	168.9855
42.500000	83.161	168.5935
43.099998	83.122	168.3383
43.700001	83.094	168.0543
44.400002	83.062	167.6293
45.000000	83.025	167.2349
45.500000	82.990	166.9109
46.200001	82.934	166.4727
46.799999	82.879	166.1584
47.500000	82.824	165.9001
48.200001	82.792	165.6276
48.700001	82.774	165.3467
49.400002	82.738	164.8887
50.000000	82.700	164.5356
50.799999	82.659	164.0805
51.500000	82.620	163.6086
52.200001	82.564	163.1738
53.000000	82.500	162.8506
53.799999	82.457	162.5538
54.500000	82.418	162.2164
55.200001	82.366	161.9254
56.000000	82.314	161.7264
57.000000	82.276	161.4250
58.000000	82.229	160.9871
59.000000	82.169	160.5866
60.000000	82.105	160.2145
60.799999	82.051	159.9685
61.500000	82.007	159.7831
62.200001	81.967	159.6039
63.000000	81.927	159.3859
64.000000	81.877	158.9915
65.000000	81.799	158.5612
66.000000	81.712	158.3048
67.000000	81.636	158.0551
68.000000	81.548	157.8715
69.000000	81.478	157.8266
70.000000	81.428	157.6930
71.000000	81.375	157.4777
72.000000	81.317	157.2099
73.000000	81.242	156.9302
74.000000	81.160	156.7813
75.000000	81.099	156.7608
76.199997	81.071	156.6080
77.500000	81.029	156.1403
78.800003	80.967	155.8390
80.000000	80.925	155.5208
81.199997	80.825	155.1563
82.500000	80.675	155.5178
83.800003	80.646	156.1177
85.000000	80.629	155.8778
86.199997	80.512	155.6103
87.500000	80.408	155.9108
88.500000	80.413	156.0602
90.000000	80.444	155.4814
91.199997	80.399	154.8389
92.500000	80.312	154.5555
93.800003	80.252	154.6032
95.000000	80.217	154.5295
96.199997	80.152	154.2805
97.500000	80.039	154.0407
98.800003	79.915	153.9658
100.000000	79.825	153.8832
101.500000	79.718	153.5825
103.000000	79.601	153.4442
104.400002	79.516	153.5274
106.000000	79.424	153.7899
107.500000	79.341	154.1954
109.000000	79.257	154.5187
110.599998	79.150	154.7592
112.000000	79.074	155.0392
113.800003	79.035	155.5726
115.000000	79.037	156.1740
117.199997	79.083	158.0677
118.000000	79.135	158.9571
120.599998	79.423	159.5489
122.000000	79.366	158.2374
124.099998	79.161	156.9375
125.000000	79.116	156.6010
126.500000	79.096	156.1736
128.000000	79.100	155.9004
131.500000	79.036	155.7422
132.000000	79.019	155.7052
134.000000	78.939	155.4180
136.000000	78.864	155.0400
138.000000	78.805	154.6562
140.000000	78.746	154.3483
143.000000	78.654	154.1778
145.000000	78.591	154.1648
147.500000	78.490	154.1387
150.000000	78.386	154.0438
152.500000	78.303	153.8888
155.000000	78.220	153.8603
157.500000	78.122	153.9211
160.000000	78.014	153.9860
162.500000	77.934	154.0369
165.000000	77.878	154.0286
167.500000	77.812	154.0715
170.000000	77.731	154.1885
172.500000	77.648	154.3002
175.000000	77.572	154.3831
177.500000	77.512	154.4625
180.000000	77.454	154.5200
182.500000	77.384	154.6202
185.000000	77.316	154.8052
187.500000	77.251	154.9804
190.000000	77.182	155.1106
192.500000	77.115	155.2193
195.000000	77.064	155.3450
197.500000	77.015	155.5094
200.000000	76.956	155.7272
203.000000	76.878	155.9586
206.000000	76.809	156.0956
209.000000	76.742	156.2168
212.000000	76.670	156.4181
214.000000	76.621	156.5791
218.000000	76.526	156.8697
220.000000	76.481	156.9815
224.000000	76.401	157.1836
227.000000	76.343	157.3806
230.000000	76.283	157.6875
233.000000	76.227	158.0061
236.000000	76.177	158.2190
240.000000	76.111	158.4386
243.000000	76.064	158.6949
247.000000	76.006	159.0383
250.000000	75.956	159.2532
254.000000	75.885	159.5141
258.000000	75.813	159.7861
262.000000	75.755	160.1518
265.000000	75.721	160.4292
269.000000	75.667	160.7290
272.000000	75.618	160.9392
276.000000	75.551	161.2532
280.000000	75.489	161.5869
285.000000	75.419	161.9549
290.000000	75.357	162.3456
295.000000	75.293	162.7625
300.000000	75.228	163.1705
304.000000	75.182	163.4648
307.000000	75.151	163.6945
311.000000	75.110	164.0341
315.000000	75.062	164.3845
320.000000	75.007	164.8498
325.000000	74.965	165.3087
330.000000	74.920	165.6761
335.000000	74.870	166.0329
340.000000	74.828	166.4174
345.000000	74.781	166.8068
350.000000	74.734	167.1797
355.000000	74.686	167.5834
360.000000	74.647	167.9947
365.000000	74.614	168.4191
370.000000	74.573	168.8073
375.000000	74.529	169.1382
382.000000	74.470	169.6570
387.000000	74.428	170.0488
395.000000	74.384	170.7289
400.000000	74.356	171.1571
406.000000	74.319	171.6158
412.000000	74.286	172.0848
418.000000	74.253	172.6102
425.000000	74.216	173.1678
431.000000	74.185	173.5803
437.000000	74.157	173.9839
444.000000	74.121	174.4694
450.000000	74.085	174.8755
455.000000	74.061	175.2111
462.000000	74.036	175.7083
468.000000	74.016	176.1815
475.000000	73.985	176.7510
482.000000	73.951	177.2871
487.000000	73.937	177.6257
494.000000	73.920	178.0558
500.000000	73.900	178.4349
508.000000	73.865	179.0179
515.000000	73.835	179.5685
522.000000	73.817	-179.9389
530.000000	73.800	-179.4203
538.000000	73.785	-178.8398
545.000000	73.780	-178.3135
552.000000	73.769	-177.7834
560.000000	73.743	-177.1769
570.000000	73.706	-176.4734
580.000000	73.678	-175.8205
590.000000	73.663	-175.1768
600.000000	73.649	-174.5208
608.000000	73.631	-173.9521
615.000000	73.614	-173.4353
622.000000	73.601	-172.9032
630.000000	73.595	-172.2982
640.000000	73.596	-171.5071
650.000000	73.598	-170.7325
660.000000	73.599	-170.0503
670.000000	73.603	-169.3676
680.000000	73.610	-168.6690
690.000000	73.613	-167.9678
700.000000	73.617	-167.2422
710.000000	73.627	-166.5244
720.000000	73.638	-165.8265
730.000000	73.646	-165.1222
740.000000	73.661	-164.4083
750.000000	73.682	-163.6880
762.000000	73.710	-162.8195
775.000000	73.742	-161.9116
788.000000	73.780	-161.0230
800.000000	73.816	-160.2877
812.000000	73.853	-159.5044
825.000000	73.904	-158.6000
838.000000	73.956	-157.6900
850.000000	74.007	-156.8464
862.000000	74.064	-156.0610
875.000000	74.129	-155.2937
885.000000	74.184	-154.7134
900.000000	74.271	-153.8351
912.000000	74.339	-153.1074
925.000000	74.419	-152.3433
938.000000	74.504	-151.6189
950.000000	74.583	-150.9992
962.000000	74.672	-150.4148
975.000000	74.779	-149.7672
988.000000	74.890	-149.1690
1000.000000	74.988	-148.6720
1015.000000	75.088	-148.0534
1030.000000	75.185	-147.4862
1044.000000	75.287	-147.0315
1060.000000	75.406	-146.5894
1075.000000	75.524	-146.1522
1090.000000	75.640	-145.7166
1106.000000	75.755	-145.3454
1120.000000	75.856	-145.0727
1138.000000	75.992	-144.7262
1150.000000	76.082	-144.5063
1172.000000	76.236	-144.1488
1180.000000	76.289	-144.0412
1206.000000	76.454	-143.7216
1220.000000	76.539	-143.5766
1241.000000	76.665	-143.3754
1250.000000	76.718	-143.2932
1265.000000	76.803	-143.1569
1280.000000	76.888	-143.0177
1315.000000	77.083	-142.7545
1320.000000	77.110	-142.7124
1340.000000	77.219	-142.5281
1360.000000	77.320	-142.3530
1380.000000	77.422	-142.2260
1400.000000	77.522	-142.1158
1430.000000	77.671	-141.9506
1450.000000	77.768	-141.8567
1475.000000	77.886	-141.7411
1500.000000	78.005	-141.6504
1525.000000	78.126	-141.5620
1550.000000	78.242	-141.4848
1575.000000	78.354	-141.4064
1600.000000	78.463	-141.3465
1625.000000	78.574	-141.3046
1650.000000	78.684	-141.2583
1675.000000	78.790	-141.2369
1700.000000	78.895	-141.2159
1725.000000	78.999	-141.1535
1750.000000	79.098	-141.1306
1775.000000	79.200	-141.1185
1800.000000	79.303	-141.0488
1825.000000	79.408	-140.9584
1850.000000	79.521	-140.8653
1875.000000	79.645	-140.7814
1900.000000	79.777	-140.7401
1925.000000	79.918	-140.7646
1950.000000	80.059	-140.8825
1975.000000	80.197	-141.0941
2000.000000	80.330	-141.3825
2030.000000	80.480	-141.8110
2060.000000	80.619	-142.2656
2090.000000	80.749	-142.7183
2120.000000	80.871	-143.1877
2140.000000	80.949	-143.5179
2180.000000	81.100	-144.2000
2200.000000	81.173	-144.5455
2240.000000	81.313	-145.2431
2270.000000	81.411	-145.7895
2300.000000	81.503	-146.3535
2330.000000	81.593	-146.9327
2360.000000	81.679	-147.5159
2400.000000	81.786	-148.3097
2430.000000	81.864	-148.9077
2470.000000	81.961	-149.7214
2500.000000	82.028	-150.3587
2540.000000	82.110	-151.2306
2580.000000	82.185	-152.1056
2620.000000	82.253	-152.9956
2650.000000	82.298	-153.6590
2690.000000	82.349	-154.5373
2720.000000	82.382	-155.2076
2760.000000	82.419	-156.1066
2800.000000	82.450	-156.9796
2850.000000	82.479	-158.0556
2900.000000	82.495	-159.1003
2950.000000	82.500	-160.0956
3000.000000	82.498	-161.0641
3040.000000	82.493	-161.7967
3070.000000	82.486	-162.3221
3110.000000	82.476	-163.0143
3150.000000	82.463	-163.6917
3200.000000	82.444	-164.5085
3250.000000	82.421	-165.2901
3300.000000	82.393	-166.0471
3350.000000	82.363	-166.7970
3400.000000	82.329	-167.5118
3450.000000	82.296	-168.1792
3500.000000	82.259	-168.8377
3550.000000	82.220	-169.4865
3600.000000	82.181	-170.1091
3650.000000	82.140	-170.7095
3700.000000	82.095	-171.2953
3750.000000	82.048	-171.8685
3820.000000	81.984	-172.6457
3870.000000	81.936	-173.1905
3950.000000	81.858	-174.0593
4000.000000	81.806	-174.5970
4060.000000	81.743	-175.2292
4120.000000	81.676	-175.8516
4180.000000	81.604	-176.4630
4250.000000	81.512	-177.1716
4310.000000	81.427	-177.7846
4370.000000	81.333	-178.3674
4440.000000	81.216	-178.9724
4500.000000	81.112	-179.4270
4550.000000	81.025	-179.7554
4620.000000	80.909	179.8324
4680.000000	80.811	179.4670
4750.000000	80.689	179.0052
4820.000000	80.553	178.5793
4870.000000	80.450	178.3356
4940.000000	80.304	178.0894
5000.000000	80.179	177.9639
5080.000000	80.015	177.8746
5150.000000	79.875	177.8299
5220.000000	79.736	177.8253
5300.000000	79.573	177.9076
5380.000000	79.410	178.0904
5450.000000	79.270	178.3315
5520.000000	79.137	178.6603
5600.000000	78.990	179.1470
5700.000000	78.821	179.8784
5800.000000	78.674	-179.2562
5900.000000	78.549	-178.2686
6000.000000	78.450	-177.1849
6080.000000	78.390	-176.2794
6150.000000	78.354	-175.4599
6220.000000	78.334	-174.6202
6300.000000	78.328	-173.6658
6400.000000	78.350	-172.4736
6500.000000	78.406	-171.2618
6600.000000	78.499	-170.0970
6700.000000	78.631	-169.0038
6800.000000	78.805	-168.0044
6900.000000	79.022	-167.1467
7000.000000	79.282	-166.4894
7100.000000	79.592	-166.0916
7200.000000	79.954	-166.0498
7300.000000	80.358	-166.4924
7400.000000	80.792	-167.5148
7500.000000	81.241	-169.2208
7620.000000	81.771	-172.2973
7750.000000	82.278	-176.9962
7880.000000	82.642	176.9025
8000.000000	82.795	170.2097
8120.000000	82.727	162.7988
8250.000000	82.362	154.4095
8380.000000	81.658	146.2943
8500.000000	80.697	139.8749
8620.000000	79.490	135.3464
8750.000000	78.046	133.0645
8850.000000	76.951	132.9917
9000.000000	75.475	134.7955
9120.000000	74.469	137.2369
9250.000000	73.547	140.3851
9380.000000	72.771	143.8140
9500.000000	72.152	147.0986
9620.000000	71.609	150.4051
9750.000000	71.092	153.9944
9880.000000	70.639	157.6235
10000.000000	70.275	161.0107
10150.000000	69.888	165.2448
10300.000000	69.565	169.5397
10440.000000	69.310	173.5388
10600.000000	69.095	178.1147
10750.000000	68.953	-177.6170
10900.000000	68.859	-173.3875
11060.000000	68.824	-168.8482
11200.000000	68.854	-164.8633
11380.000000	68.986	-159.7177
11500.000000	69.132	-156.3184
11720.000000	69.530	-150.2220
11800.000000	69.725	-148.0794
12060.000000	70.562	-141.5350
12200.000000	71.154	-138.3613
12410.000000	72.255	-134.4752
12500.000000	72.813	-133.2717
12650.000000	73.859	-132.0880
12800.000000	75.036	-132.3024
13150.000000	77.877	-141.5446
13200.000000	78.213	-144.1399
13400.000000	79.111	-157.4293
13600.000000	79.097	-172.6427
13800.000000	78.239	174.6293
14000.000000	76.901	166.5759
14300.000000	74.815	161.8415
14500.000000	73.654	161.5471
14750.000000	72.535	162.6749
15000.000000	71.742	164.4551
15250.000000	71.221	166.1436
15500.000000	70.912	167.1801
15750.000000	70.769	167.0819
16000.000000	70.698	165.4080
16250.000000	70.568	161.7576
16500.000000	70.215	156.2232
16750.000000	69.511	149.2737
17000.000000	68.277	141.8898
17250.000000	66.117	140.7295
17500.000000	63.952	150.4544
17750.000000	63.225	158.2646
18000.000000	62.879	162.3199
18250.000000	62.565	165.5269
18500.000000	62.339	168.0867
18750.000000	62.167	169.6445
19000.000000	61.987	169.9260
19250.000000	61.733	168.9524
19500.000000	61.327	167.2879
19750.000000	60.781	165.4260
20000.000000	60.340	163.9180
