* Measurement data measured by REW V5.20.13
* Source: Input device not selected, no input selected, L, volume: no control
* Format: 256k Log Swept Sine, 1 sweep at -12.0 dBFS with no timing reference
* Dated: 2022. 10. 2 ¿ÀÈÄ 8:51:49
* REW Settings:
*  C-weighting compensation: Off
*  Target level: 75.0 dB
* Note: 
* Measurement: R_Steel_Ctystal
* Smoothing: 1/24 octave
* Frequency Step: 1/48 octave
* Start Frequency: 20.300 Hz
*
* Freq(Hz)	SPL(dB)	Phase(degrees)
20.299999	84.517	-168.9558
20.600000	84.526	-169.2211
20.900000	84.542	-169.6875
21.200001	84.548	-170.1105
21.400000	84.548	-170.3706
21.799999	84.545	-170.8840
22.000000	84.543	-171.1567
22.400000	84.537	-171.7529
22.700001	84.529	-172.2426
23.000000	84.515	-172.7500
23.299999	84.495	-173.2437
23.600000	84.474	-173.7025
24.000000	84.449	-174.2486
24.299999	84.438	-174.6241
24.700001	84.434	-175.1149
25.000000	84.437	-175.4940
25.400000	84.443	-176.0137
25.799999	84.447	-176.5235
26.200001	84.452	-176.9996
26.500000	84.456	-177.3356
26.900000	84.463	-177.7710
27.200001	84.467	-178.0991
27.600000	84.469	-178.5404
28.000000	84.463	-178.9698
28.500000	84.447	-179.4602
29.000000	84.427	-179.8982
29.500000	84.406	179.6825
30.000000	84.384	179.2534
30.400000	84.363	178.9063
30.700001	84.347	178.6509
31.100000	84.328	178.3194
31.500000	84.312	177.9879
32.000000	84.298	177.5436
32.500000	84.288	177.0451
33.000000	84.273	176.5148
33.500000	84.253	176.0042
34.000000	84.232	175.5486
34.500000	84.215	175.1388
35.000000	84.200	174.7495
35.500000	84.185	174.3777
36.000000	84.167	174.0411
36.500000	84.150	173.7404
37.000000	84.133	173.4492
37.500000	84.114	173.1488
38.200001	84.081	172.7316
38.700001	84.056	172.4375
39.500000	84.014	171.8899
40.000000	83.978	171.5101
40.599998	83.926	171.1139
41.200001	83.886	170.8021
41.799999	83.867	170.4452
42.500000	83.849	169.8691
43.099998	83.821	169.3516
43.700001	83.792	168.9056
44.400002	83.764	168.4236
45.000000	83.738	168.0263
45.500000	83.715	167.7507
46.200001	83.693	167.4205
46.799999	83.680	167.0811
47.500000	83.648	166.6288
48.200001	83.601	166.2670
48.700001	83.570	166.0595
49.400002	83.533	165.7260
50.000000	83.493	165.3953
50.799999	83.428	165.0213
51.500000	83.379	164.7773
52.200001	83.342	164.5359
53.000000	83.311	164.1982
53.799999	83.279	163.7777
54.500000	83.238	163.4178
55.200001	83.195	163.1545
56.000000	83.161	162.9020
57.000000	83.123	162.4371
58.000000	83.054	161.9679
59.000000	82.980	161.6891
60.000000	82.926	161.4590
60.799999	82.897	161.2144
61.500000	82.873	160.8754
62.200001	82.829	160.4510
63.000000	82.752	160.0883
64.000000	82.671	159.9237
65.000000	82.625	159.6714
66.000000	82.563	159.2928
67.000000	82.491	159.0144
68.000000	82.430	158.7706
69.000000	82.378	158.4890
70.000000	82.325	158.1179
71.000000	82.252	157.7696
72.000000	82.178	157.6062
73.000000	82.127	157.4897
74.000000	82.079	157.3076
75.000000	82.023	157.1042
76.199997	81.941	156.9166
77.500000	81.854	156.8274
78.800003	81.782	156.7563
80.000000	81.727	156.6564
81.199997	81.677	156.5330
82.500000	81.630	156.4045
83.800003	81.587	156.2281
85.000000	81.536	156.0506
86.199997	81.478	155.9185
87.500000	81.416	155.7739
88.500000	81.366	155.6271
90.000000	81.285	155.3275
91.199997	81.208	155.1100
92.500000	81.132	154.9500
93.800003	81.061	154.7622
95.000000	80.990	154.5893
96.199997	80.909	154.4222
97.500000	80.806	154.2966
98.800003	80.691	154.2490
100.000000	80.580	154.3314
101.500000	80.454	154.5793
103.000000	80.340	154.9914
104.400002	80.249	155.6210
106.000000	80.192	156.6020
107.500000	80.204	157.5178
109.000000	80.265	158.1360
110.599998	80.356	158.4310
112.000000	80.449	158.4281
113.800003	80.552	158.1126
115.000000	80.590	157.7602
117.199997	80.533	156.8762
118.000000	80.466	156.6238
120.599998	80.296	156.2588
122.000000	80.270	155.5849
124.099998	80.200	154.3364
125.000000	80.159	153.9414
126.500000	80.094	153.6219
128.000000	80.050	153.6558
131.500000	79.988	153.5462
132.000000	79.969	153.5182
134.000000	79.891	153.4285
136.000000	79.810	153.2522
138.000000	79.717	153.0833
140.000000	79.629	153.0057
143.000000	79.519	152.9473
145.000000	79.450	152.9078
147.500000	79.377	152.8564
150.000000	79.306	152.7244
152.500000	79.219	152.6930
155.000000	79.140	152.7585
157.500000	79.066	152.8041
160.000000	78.982	152.8242
162.500000	78.888	152.8198
165.000000	78.804	152.7481
167.500000	78.731	152.6876
170.000000	78.654	152.7562
172.500000	78.565	152.9057
175.000000	78.474	152.9999
177.500000	78.393	153.0309
180.000000	78.312	153.0900
182.500000	78.231	153.2168
185.000000	78.168	153.3160
187.500000	78.123	153.3817
190.000000	78.069	153.5149
192.500000	77.994	153.8348
195.000000	77.932	154.2516
197.500000	77.889	154.5228
200.000000	77.842	154.7044
203.000000	77.784	154.8736
206.000000	77.729	154.9439
209.000000	77.676	154.9600
212.000000	77.620	155.0238
214.000000	77.587	155.1000
218.000000	77.514	155.2564
220.000000	77.470	155.3267
224.000000	77.372	155.4301
227.000000	77.303	155.5409
230.000000	77.242	155.6993
233.000000	77.180	155.8952
236.000000	77.114	156.1167
240.000000	77.020	156.3842
243.000000	76.955	156.5516
247.000000	76.888	156.7766
250.000000	76.840	156.9612
254.000000	76.766	157.2399
258.000000	76.694	157.5031
262.000000	76.629	157.7359
265.000000	76.581	157.9295
269.000000	76.517	158.2265
272.000000	76.468	158.4571
276.000000	76.402	158.7540
280.000000	76.340	159.0101
285.000000	76.268	159.3415
290.000000	76.196	159.7084
295.000000	76.126	160.0710
300.000000	76.061	160.4778
304.000000	76.008	160.8111
307.000000	75.970	161.0283
311.000000	75.921	161.3044
315.000000	75.869	161.6130
320.000000	75.809	162.0029
325.000000	75.757	162.3504
330.000000	75.701	162.6892
335.000000	75.637	163.0603
340.000000	75.578	163.4255
345.000000	75.525	163.7939
350.000000	75.471	164.1914
355.000000	75.420	164.5785
360.000000	75.377	164.9357
365.000000	75.331	165.3065
370.000000	75.284	165.7028
375.000000	75.245	166.0798
382.000000	75.192	166.5826
387.000000	75.148	166.9653
395.000000	75.078	167.5851
400.000000	75.039	167.9567
406.000000	74.999	168.3973
412.000000	74.956	168.8233
418.000000	74.909	169.2445
425.000000	74.858	169.7499
431.000000	74.824	170.2010
437.000000	74.789	170.6836
444.000000	74.747	171.2635
450.000000	74.712	171.6895
455.000000	74.679	172.0201
462.000000	74.638	172.5273
468.000000	74.606	172.9725
475.000000	74.574	173.4631
482.000000	74.549	173.9258
487.000000	74.529	174.2737
494.000000	74.503	174.7746
500.000000	74.476	175.2073
508.000000	74.437	175.8101
515.000000	74.409	176.3378
522.000000	74.386	176.8369
530.000000	74.358	177.3788
538.000000	74.325	177.9118
545.000000	74.298	178.3929
552.000000	74.275	178.8867
560.000000	74.253	179.4692
570.000000	74.224	-179.8313
580.000000	74.202	-179.1043
590.000000	74.177	-178.3786
600.000000	74.146	-177.6516
608.000000	74.130	-177.0739
615.000000	74.119	-176.5685
622.000000	74.109	-176.0578
630.000000	74.099	-175.4836
640.000000	74.090	-174.7842
650.000000	74.080	-174.1001
660.000000	74.070	-173.3872
670.000000	74.065	-172.6362
680.000000	74.062	-171.9039
690.000000	74.063	-171.1986
700.000000	74.062	-170.4732
710.000000	74.065	-169.7309
720.000000	74.073	-169.0388
730.000000	74.076	-168.3495
740.000000	74.083	-167.6597
750.000000	74.100	-166.9798
762.000000	74.123	-166.1675
775.000000	74.149	-165.2871
788.000000	74.179	-164.3768
800.000000	74.212	-163.5137
812.000000	74.246	-162.6857
825.000000	74.288	-161.8343
838.000000	74.335	-160.9638
850.000000	74.385	-160.1636
862.000000	74.441	-159.3839
875.000000	74.504	-158.5475
885.000000	74.554	-157.9328
900.000000	74.635	-157.0502
912.000000	74.698	-156.3217
925.000000	74.773	-155.5749
938.000000	74.855	-154.8588
950.000000	74.935	-154.2120
962.000000	75.017	-153.5912
975.000000	75.107	-152.9797
988.000000	75.194	-152.4505
1000.000000	75.274	-151.9763
1015.000000	75.389	-151.3096
1030.000000	75.506	-150.6961
1044.000000	75.612	-150.2043
1060.000000	75.731	-149.7092
1075.000000	75.842	-149.2880
1090.000000	75.953	-148.9046
1106.000000	76.069	-148.5129
1120.000000	76.169	-148.1884
1138.000000	76.296	-147.8125
1150.000000	76.380	-147.5820
1172.000000	76.527	-147.2392
1180.000000	76.578	-147.1312
1206.000000	76.745	-146.8224
1220.000000	76.834	-146.6612
1241.000000	76.961	-146.3865
1250.000000	77.014	-146.2823
1265.000000	77.100	-146.1297
1280.000000	77.184	-145.9855
1315.000000	77.381	-145.6775
1320.000000	77.408	-145.6369
1340.000000	77.519	-145.4865
1360.000000	77.628	-145.3434
1380.000000	77.733	-145.2082
1400.000000	77.835	-145.0963
1430.000000	77.991	-144.9478
1450.000000	78.092	-144.8768
1475.000000	78.217	-144.8099
1500.000000	78.339	-144.7580
1525.000000	78.459	-144.7191
1550.000000	78.576	-144.6884
1575.000000	78.689	-144.6705
1600.000000	78.802	-144.6630
1625.000000	78.912	-144.6648
1650.000000	79.018	-144.6694
1675.000000	79.125	-144.6882
1700.000000	79.231	-144.7123
1725.000000	79.337	-144.7395
1750.000000	79.445	-144.7754
1775.000000	79.550	-144.8215
1800.000000	79.655	-144.8774
1825.000000	79.761	-144.9552
1850.000000	79.867	-145.0608
1875.000000	79.974	-145.1651
1900.000000	80.080	-145.2824
1925.000000	80.188	-145.4208
1950.000000	80.296	-145.5668
1975.000000	80.401	-145.7416
2000.000000	80.507	-145.9429
2030.000000	80.634	-146.2165
2060.000000	80.758	-146.5123
2090.000000	80.880	-146.8277
2120.000000	81.001	-147.1762
2140.000000	81.082	-147.4318
2180.000000	81.240	-147.9917
2200.000000	81.317	-148.2943
2240.000000	81.466	-148.9359
2270.000000	81.574	-149.4356
2300.000000	81.678	-149.9620
2330.000000	81.778	-150.5356
2360.000000	81.875	-151.1476
2400.000000	81.996	-151.9734
2430.000000	82.082	-152.6129
2470.000000	82.188	-153.5062
2500.000000	82.263	-154.1915
2540.000000	82.355	-155.1203
2580.000000	82.436	-156.0749
2620.000000	82.509	-157.0485
2650.000000	82.557	-157.7935
2690.000000	82.613	-158.7969
2720.000000	82.649	-159.5434
2760.000000	82.690	-160.5317
2800.000000	82.722	-161.5179
2850.000000	82.751	-162.7358
2900.000000	82.767	-163.9360
2950.000000	82.771	-165.1113
3000.000000	82.763	-166.2446
3040.000000	82.750	-167.1215
3070.000000	82.737	-167.7644
3110.000000	82.716	-168.6032
3150.000000	82.690	-169.4171
3200.000000	82.649	-170.3901
3250.000000	82.603	-171.3202
3300.000000	82.554	-172.2097
3350.000000	82.497	-173.0566
3400.000000	82.434	-173.8584
3450.000000	82.368	-174.6070
3500.000000	82.298	-175.2986
3550.000000	82.227	-175.9357
3600.000000	82.157	-176.5198
3650.000000	82.090	-177.0606
3700.000000	82.027	-177.5722
3750.000000	81.966	-178.0768
3820.000000	81.881	-178.8029
3870.000000	81.820	-179.3244
3950.000000	81.719	179.8617
4000.000000	81.651	179.3756
4060.000000	81.565	178.8144
4120.000000	81.476	178.2780
4180.000000	81.386	177.7781
4250.000000	81.275	177.2336
4310.000000	81.176	176.8004
4370.000000	81.076	176.4082
4440.000000	80.957	176.0052
4500.000000	80.856	175.7205
4550.000000	80.773	175.5237
4620.000000	80.662	175.2855
4680.000000	80.573	175.0800
4750.000000	80.470	174.8261
4820.000000	80.362	174.5740
4870.000000	80.282	174.4099
4940.000000	80.168	174.2279
5000.000000	80.069	174.1189
5080.000000	79.935	174.0493
5150.000000	79.817	174.0434
5220.000000	79.701	174.0874
5300.000000	79.572	174.2119
5380.000000	79.449	174.4101
5450.000000	79.347	174.6402
5520.000000	79.250	174.9190
5600.000000	79.146	175.2914
5700.000000	79.030	175.8394
5800.000000	78.930	176.4737
5900.000000	78.849	177.1846
6000.000000	78.790	177.9459
6080.000000	78.758	178.5833
6150.000000	78.745	179.1531
6220.000000	78.745	179.7264
6300.000000	78.761	-179.6180
6400.000000	78.806	-178.8095
6500.000000	78.880	-178.0583
6600.000000	78.984	-177.3872
6700.000000	79.118	-176.8051
6800.000000	79.284	-176.3448
6900.000000	79.481	-176.0383
7000.000000	79.710	-175.9180
7100.000000	79.975	-176.0377
7200.000000	80.276	-176.4731
7300.000000	80.612	-177.3073
7400.000000	80.971	-178.6390
7500.000000	81.341	179.4395
7620.000000	81.777	176.2390
7750.000000	82.190	171.5465
7880.000000	82.478	165.5836
8000.000000	82.577	159.0919
8120.000000	82.471	151.9048
8250.000000	82.086	143.7018
8380.000000	81.374	135.6600
8500.000000	80.406	129.2132
8620.000000	79.184	124.6082
8750.000000	77.713	122.2409
8850.000000	76.594	122.1289
9000.000000	75.078	123.9250
9120.000000	74.045	126.3728
9250.000000	73.093	129.5304
9380.000000	72.286	132.9568
9500.000000	71.639	136.2380
9620.000000	71.064	139.5684
9750.000000	70.513	143.2009
9880.000000	70.030	146.8720
10000.000000	69.640	150.3018
10150.000000	69.220	154.5826
10300.000000	68.863	158.8469
10440.000000	68.582	162.8394
10600.000000	68.318	167.4106
10750.000000	68.132	171.6573
10900.000000	67.999	175.8694
11060.000000	67.914	-179.6601
11200.000000	67.889	-175.7985
11380.000000	67.921	-170.8896
11500.000000	67.983	-167.6431
11720.000000	68.186	-161.7874
11800.000000	68.292	-159.6918
12060.000000	68.766	-153.0898
12200.000000	69.109	-149.7811
12410.000000	69.737	-145.1633
12500.000000	70.053	-143.3224
12650.000000	70.645	-140.5228
12800.000000	71.318	-138.1212
13150.000000	73.216	-134.7354
13200.000000	73.524	-134.5957
13400.000000	74.840	-135.1939
13600.000000	76.223	-138.1186
13800.000000	77.536	-144.0148
14000.000000	78.572	-153.0795
14300.000000	79.231	-170.5861
14500.000000	79.017	177.6428
14750.000000	78.190	165.3155
15000.000000	77.037	156.2576
15250.000000	75.805	149.7146
15500.000000	74.601	144.7069
15750.000000	73.421	140.5561
16000.000000	72.232	136.8378
16250.000000	70.997	133.2545
16500.000000	69.655	129.4965
16750.000000	68.056	125.2578
17000.000000	65.799	124.6622
17250.000000	63.086	139.3833
17500.000000	62.369	155.4964
17750.000000	62.361	159.9007
18000.000000	61.890	162.5908
18250.000000	61.302	166.7242
18500.000000	60.804	171.7063
18750.000000	60.429	177.0044
19000.000000	60.182	-177.7108
19250.000000	60.073	-172.5767
19500.000000	60.076	-167.7676
19750.000000	60.178	-163.6904
20000.000000	60.288	-161.1852
