* Measurement data measured by REW V5.20.5
* Source: Input device not selected, no input selected, L, volume: no control
* Format: 128k Log Swept Sine, 2 sweeps at -12.0 dBFS with no timing reference
* Dated: Jul 25, 2022 12:04:11 PM
* REW Settings:
*  C-weighting compensation: Off
*  Target level: 75.0 dB
* Note: ; 
* Measurement: Kato Steel Grey L
* Smoothing: 1/24 octave
* Frequency Step: 1/48 octave
* Start Frequency: 20.300 Hz
*
* Freq(Hz)	SPL(dB)	Phase(degrees)
20.299999	102.226	12.9147
20.600000	102.241	12.8146
20.900000	102.269	12.5625
21.200001	102.286	12.1786
21.400000	102.286	11.8674
21.799999	102.261	11.2225
22.000000	102.239	10.9293
22.400000	102.191	10.4278
22.700001	102.163	10.0915
23.000000	102.145	9.7272
23.299999	102.134	9.2896
23.600000	102.122	8.7710
24.000000	102.093	8.0280
24.299999	102.061	7.5192
24.700001	102.020	6.9959
25.000000	102.001	6.7124
25.400000	102.002	6.3863
25.799999	102.027	5.9846
26.200001	102.052	5.4567
26.500000	102.057	5.0260
26.900000	102.043	4.5286
27.200001	102.024	4.2764
27.600000	102.007	4.0987
28.000000	102.014	3.9893
28.500000	102.053	3.6947
29.000000	102.079	3.0892
29.500000	102.056	2.3306
30.000000	101.987	1.7196
30.400000	101.924	1.4247
30.700001	101.885	1.2793
31.100000	101.850	1.0912
31.500000	101.827	0.8231
32.000000	101.793	0.3745
32.500000	101.747	-0.0732
33.000000	101.704	-0.4223
33.500000	101.686	-0.7358
34.000000	101.688	-1.1436
34.500000	101.688	-1.6654
35.000000	101.673	-2.1876
35.500000	101.652	-2.6086
36.000000	101.637	-2.9476
36.500000	101.631	-3.2934
37.000000	101.621	-3.6831
37.500000	101.597	-4.0651
38.200001	101.551	-4.4736
38.700001	101.523	-4.7009
39.500000	101.489	-5.1502
40.000000	101.462	-5.5111
40.599998	101.415	-5.9260
41.200001	101.368	-6.2382
41.799999	101.339	-6.4925
42.500000	101.329	-6.8775
43.099998	101.321	-7.3276
43.700001	101.298	-7.7982
44.400002	101.259	-8.2374
45.000000	101.227	-8.5011
45.500000	101.207	-8.6870
46.200001	101.183	-8.9774
46.799999	101.156	-9.2744
47.500000	101.109	-9.6127
48.200001	101.054	-9.8846
48.700001	101.017	-10.0525
49.400002	100.970	-10.2747
50.000000	100.941	-10.4567
50.799999	100.928	-10.8139
51.500000	100.919	-11.3809
52.200001	100.871	-12.0139
53.000000	100.794	-12.3947
53.799999	100.760	-12.5260
54.500000	100.751	-12.7673
55.200001	100.723	-13.0392
56.000000	100.689	-13.2287
57.000000	100.637	-13.6306
58.000000	100.505	-13.7830
59.000000	100.439	-13.3158
60.000000	100.480	-13.4781
60.799999	100.474	-14.1621
61.500000	100.424	-14.7816
62.200001	100.359	-15.2538
63.000000	100.296	-15.6108
64.000000	100.253	-15.9788
65.000000	100.232	-16.3454
66.000000	100.223	-16.7636
67.000000	100.184	-17.2042
68.000000	100.126	-17.3679
69.000000	100.085	-17.4475
70.000000	100.044	-17.6291
71.000000	99.990	-17.9231
72.000000	99.917	-18.2223
73.000000	99.863	-18.4264
74.000000	99.835	-18.8291
75.000000	99.777	-19.3303
76.199997	99.688	-19.5721
77.500000	99.622	-19.6841
78.800003	99.516	-19.9928
80.000000	99.394	-20.2232
81.199997	99.323	-20.8735
82.500000	99.242	-22.9889
83.800003	98.892	-24.7691
85.000000	98.720	-23.7175
86.199997	98.915	-22.8414
87.500000	99.111	-22.2637
88.500000	99.220	-21.1584
90.000000	99.492	-18.1675
91.199997	99.874	-17.6701
92.500000	99.703	-19.9016
93.800003	99.072	-19.7381
95.000000	98.711	-18.7793
96.199997	98.534	-18.5755
97.500000	98.473	-18.6924
98.800003	98.551	-18.8986
100.000000	98.679	-19.3229
101.500000	98.780	-19.9801
103.000000	98.769	-20.4989
104.400002	98.683	-20.7757
106.000000	98.587	-21.0443
107.500000	98.518	-21.5424
109.000000	98.466	-21.9566
110.599998	98.454	-22.3098
112.000000	98.434	-22.6419
113.800003	98.363	-22.8278
115.000000	98.319	-22.8964
117.199997	98.227	-23.3526
118.000000	98.181	-23.5696
120.599998	98.022	-23.8014
122.000000	97.984	-23.7347
124.099998	97.936	-23.8129
125.000000	97.903	-23.8491
126.500000	97.845	-23.8880
128.000000	97.785	-23.9823
131.500000	97.628	-24.2525
132.000000	97.606	-24.2658
134.000000	97.535	-24.2768
136.000000	97.472	-24.3147
138.000000	97.406	-24.2699
140.000000	97.351	-24.1725
143.000000	97.256	-24.1771
145.000000	97.176	-24.2921
147.500000	97.087	-24.4443
150.000000	97.024	-24.6416
152.500000	96.953	-24.5929
155.000000	96.885	-24.3814
157.500000	96.810	-24.2567
160.000000	96.740	-24.1826
162.500000	96.676	-24.2153
165.000000	96.583	-24.2635
167.500000	96.493	-24.1155
170.000000	96.444	-23.9874
172.500000	96.400	-23.8790
175.000000	96.339	-23.7546
177.500000	96.268	-23.6397
180.000000	96.211	-23.5406
182.500000	96.175	-23.4366
185.000000	96.128	-23.3621
187.500000	96.057	-23.2774
190.000000	95.987	-23.1905
192.500000	95.932	-23.0770
195.000000	95.888	-22.9774
197.500000	95.837	-22.9163
200.000000	95.779	-22.8099
203.000000	95.714	-22.6020
206.000000	95.645	-22.3986
209.000000	95.572	-22.2104
212.000000	95.515	-22.0237
214.000000	95.482	-21.9167
218.000000	95.411	-21.7139
220.000000	95.373	-21.6939
224.000000	95.280	-21.6293
227.000000	95.216	-21.3808
230.000000	95.155	-21.0266
233.000000	95.104	-20.7070
236.000000	95.085	-20.4842
240.000000	95.063	-20.3388
243.000000	94.991	-20.1673
247.000000	94.885	-19.8715
250.000000	94.825	-19.6887
254.000000	94.763	-19.4301
258.000000	94.712	-19.1812
262.000000	94.664	-18.9424
265.000000	94.629	-18.7310
269.000000	94.580	-18.4307
272.000000	94.531	-18.2378
276.000000	94.469	-17.9749
280.000000	94.422	-17.7018
285.000000	94.362	-17.3456
290.000000	94.304	-16.9692
295.000000	94.257	-16.5683
300.000000	94.204	-16.2653
304.000000	94.163	-16.0164
307.000000	94.131	-15.7792
311.000000	94.090	-15.4550
315.000000	94.054	-15.1908
320.000000	94.012	-14.9259
325.000000	93.963	-14.6025
330.000000	93.911	-14.1636
335.000000	93.866	-13.7941
340.000000	93.820	-13.4868
345.000000	93.771	-13.1126
350.000000	93.732	-12.7185
355.000000	93.692	-12.3575
360.000000	93.647	-12.0131
365.000000	93.616	-11.6560
370.000000	93.590	-11.3162
375.000000	93.554	-10.9933
382.000000	93.504	-10.5477
387.000000	93.480	-10.1793
395.000000	93.429	-9.6201
400.000000	93.399	-9.2571
406.000000	93.366	-8.8057
412.000000	93.329	-8.4017
418.000000	93.298	-8.0215
425.000000	93.267	-7.5385
431.000000	93.236	-7.1345
437.000000	93.208	-6.7308
444.000000	93.178	-6.2332
450.000000	93.165	-5.8450
455.000000	93.158	-5.5297
462.000000	93.128	-5.0457
468.000000	93.098	-4.6157
475.000000	93.071	-4.1622
482.000000	93.043	-3.7155
487.000000	93.026	-3.3813
494.000000	93.009	-2.9239
500.000000	92.994	-2.5164
508.000000	92.973	-1.9589
515.000000	92.953	-1.4767
522.000000	92.931	-1.0232
530.000000	92.912	-0.5565
538.000000	92.903	-0.0708
545.000000	92.893	0.3790
552.000000	92.875	0.8205
560.000000	92.857	1.3559
570.000000	92.835	2.0491
580.000000	92.809	2.7361
590.000000	92.783	3.4621
600.000000	92.762	4.1557
608.000000	92.752	4.6235
615.000000	92.745	5.0332
622.000000	92.741	5.4866
630.000000	92.747	6.0186
640.000000	92.752	6.6740
650.000000	92.747	7.3459
660.000000	92.750	7.9986
670.000000	92.759	8.6749
680.000000	92.767	9.3545
690.000000	92.773	10.0193
700.000000	92.780	10.6885
710.000000	92.787	11.3264
720.000000	92.799	11.9654
730.000000	92.814	12.6315
740.000000	92.830	13.2947
750.000000	92.848	13.9432
762.000000	92.873	14.6914
775.000000	92.902	15.5170
788.000000	92.936	16.3561
800.000000	92.974	17.1183
812.000000	93.011	17.8558
825.000000	93.047	18.6556
838.000000	93.093	19.4813
850.000000	93.148	20.2145
862.000000	93.197	20.9119
875.000000	93.248	21.6671
885.000000	93.293	22.2553
900.000000	93.363	23.1301
912.000000	93.420	23.8011
925.000000	93.489	24.4965
938.000000	93.567	25.1814
950.000000	93.638	25.7889
962.000000	93.706	26.3488
975.000000	93.782	26.9351
988.000000	93.865	27.5240
1000.000000	93.941	28.0505
1015.000000	94.036	28.6333
1030.000000	94.136	29.1506
1044.000000	94.229	29.6065
1060.000000	94.335	30.0963
1075.000000	94.432	30.5145
1090.000000	94.524	30.9033
1106.000000	94.620	31.2960
1120.000000	94.702	31.6063
1138.000000	94.806	31.9644
1150.000000	94.876	32.1681
1172.000000	95.006	32.5210
1180.000000	95.052	32.6419
1206.000000	95.199	32.9859
1220.000000	95.283	33.1449
1241.000000	95.417	33.3621
1250.000000	95.474	33.4488
1265.000000	95.568	33.5862
1280.000000	95.659	33.7252
1315.000000	95.866	34.1079
1320.000000	95.897	34.1654
1340.000000	96.026	34.3785
1360.000000	96.166	34.5636
1380.000000	96.319	34.6981
1400.000000	96.475	34.7230
1430.000000	96.692	34.5818
1450.000000	96.823	34.4344
1475.000000	96.973	34.2368
1500.000000	97.110	34.0620
1525.000000	97.231	33.9052
1550.000000	97.339	33.7514
1575.000000	97.442	33.6042
1600.000000	97.538	33.4663
1625.000000	97.628	33.3418
1650.000000	97.720	33.2339
1675.000000	97.811	33.1252
1700.000000	97.896	33.0016
1725.000000	97.980	32.8660
1750.000000	98.063	32.7313
1775.000000	98.145	32.6082
1800.000000	98.222	32.4963
1825.000000	98.294	32.3924
1850.000000	98.361	32.3074
1875.000000	98.425	32.2538
1900.000000	98.481	32.2353
1925.000000	98.532	32.2812
1950.000000	98.585	32.4149
1975.000000	98.645	32.6329
2000.000000	98.713	32.9215
2030.000000	98.809	33.3481
2060.000000	98.930	33.8575
2090.000000	99.091	34.4325
2120.000000	99.301	34.9381
2140.000000	99.468	35.1208
2180.000000	99.827	34.8939
2200.000000	99.997	34.4748
2240.000000	100.273	33.2565
2270.000000	100.422	32.2454
2300.000000	100.537	31.3118
2330.000000	100.633	30.4974
2360.000000	100.723	29.7666
2400.000000	100.844	28.8354
2430.000000	100.935	28.1042
2470.000000	101.045	27.0440
2500.000000	101.110	26.2037
2540.000000	101.167	25.1143
2580.000000	101.198	24.1743
2620.000000	101.215	23.4598
2650.000000	101.232	23.0747
2690.000000	101.276	22.7027
2720.000000	101.333	22.4589
2760.000000	101.440	22.0347
2800.000000	101.561	21.3771
2850.000000	101.697	20.2270
2900.000000	101.790	18.8849
2950.000000	101.836	17.5269
3000.000000	101.853	16.3020
3040.000000	101.860	15.4414
3070.000000	101.864	14.8364
3110.000000	101.868	14.0442
3150.000000	101.871	13.2740
3200.000000	101.870	12.3644
3250.000000	101.864	11.4989
3300.000000	101.858	10.6593
3350.000000	101.852	9.8468
3400.000000	101.845	9.0543
3450.000000	101.836	8.2537
3500.000000	101.826	7.4383
3550.000000	101.811	6.6442
3600.000000	101.793	5.8671
3650.000000	101.772	5.0630
3700.000000	101.748	4.2321
3750.000000	101.720	3.4023
3820.000000	101.667	2.2607
3870.000000	101.623	1.4538
3950.000000	101.546	0.2028
4000.000000	101.494	-0.5267
4060.000000	101.428	-1.3810
4120.000000	101.358	-2.2412
4180.000000	101.282	-3.0893
4250.000000	101.182	-4.0531
4310.000000	101.088	-4.8654
4370.000000	100.985	-5.6655
4440.000000	100.850	-6.5560
4500.000000	100.725	-7.2536
4550.000000	100.616	-7.7890
4620.000000	100.461	-8.4949
4680.000000	100.322	-9.0775
4750.000000	100.144	-9.7263
4820.000000	99.949	-10.3082
4870.000000	99.797	-10.6514
4940.000000	99.567	-11.0069
5000.000000	99.361	-11.1938
5080.000000	99.084	-11.2834
5150.000000	98.843	-11.2126
5220.000000	98.604	-11.0015
5300.000000	98.338	-10.6274
5380.000000	98.077	-10.1321
5450.000000	97.850	-9.5728
5520.000000	97.624	-8.8840
5600.000000	97.373	-7.9704
5700.000000	97.080	-6.6555
5800.000000	96.814	-5.1189
5900.000000	96.579	-3.4233
6000.000000	96.380	-1.6131
6080.000000	96.248	-0.0864
6150.000000	96.153	1.2970
6220.000000	96.077	2.7231
6300.000000	96.017	4.3907
6400.000000	95.982	6.4702
6500.000000	95.989	8.5313
6600.000000	96.040	10.5841
6700.000000	96.141	12.5711
6800.000000	96.295	14.4341
6900.000000	96.502	16.1589
7000.000000	96.765	17.7087
7100.000000	97.086	19.0155
7200.000000	97.462	20.0128
7300.000000	97.893	20.6269
7400.000000	98.377	20.7394
7500.000000	98.906	20.2276
7620.000000	99.579	18.6269
7750.000000	100.310	15.3863
7880.000000	100.975	10.1680
8000.000000	101.434	3.3761
8120.000000	101.619	-5.1909
8250.000000	101.361	-15.6677
8380.000000	100.545	-25.5341
8500.000000	99.372	-32.3408
8620.000000	97.985	-36.2320
8750.000000	96.468	-37.5585
8850.000000	95.392	-37.1259
9000.000000	93.987	-35.0755
9120.000000	93.031	-32.7385
9250.000000	92.133	-29.8272
9380.000000	91.352	-26.6660
9500.000000	90.717	-23.5727
9620.000000	90.153	-20.3498
9750.000000	89.620	-16.7617
9880.000000	89.167	-13.1430
10000.000000	88.813	-9.7770
10150.000000	88.443	-5.5023
10300.000000	88.159	-1.2381
10440.000000	87.971	2.7161
10600.000000	87.838	7.2002
10750.000000	87.797	11.3280
10900.000000	87.846	15.3043
11060.000000	88.007	19.3554
11200.000000	88.248	22.6966
11380.000000	88.722	26.4931
11500.000000	89.154	28.5242
11720.000000	90.195	30.5969
11800.000000	90.648	30.6044
12060.000000	92.250	26.3031
12200.000000	93.010	20.3756
12410.000000	93.568	6.9252
12500.000000	93.492	0.3170
12650.000000	92.915	-10.0773
12800.000000	91.874	-18.1757
13150.000000	88.710	-26.1098
13200.000000	88.264	-26.2500
13400.000000	86.612	-25.2490
13600.000000	85.222	-22.5459
13800.000000	84.135	-18.8901
14000.000000	83.314	-14.7598
14300.000000	82.447	-8.1959
14500.000000	82.081	-3.8190
14750.000000	81.871	1.2647
15000.000000	81.935	5.5138
15250.000000	82.282	8.3469
15500.000000	82.866	8.6268
15750.000000	83.519	4.6635
16000.000000	83.847	-4.7139
16250.000000	83.357	-17.9409
16500.000000	81.853	-30.1797
16750.000000	79.632	-38.2763
17000.000000	77.116	-44.0166
17250.000000	73.918	-43.0752
17500.000000	69.801	-25.0967
17750.000000	67.177	-5.3548
18000.000000	66.184	8.2194
18250.000000	65.489	19.0993
18500.000000	64.892	29.0868
18750.000000	64.440	38.3183
19000.000000	64.229	46.6169
19250.000000	64.219	53.1909
19500.000000	64.247	57.4291
19750.000000	64.055	59.0291
