* Measurement data measured by REW V5.20.13
* Source: Input device not selected, no input selected, L, volume: no control
* Format: 256k Log Swept Sine, 1 sweep at -12.0 dBFS with no timing reference
* Dated: 2022. 10. 2 ¿ÀÈÄ 8:05:49
* REW Settings:
*  C-weighting compensation: Off
*  Target level: 75.0 dB
* Note: 
* Measurement: L_Steel_Crystal
* Smoothing: 1/24 octave
* Frequency Step: 1/48 octave
* Start Frequency: 20.300 Hz
*
* Freq(Hz)	SPL(dB)	Phase(degrees)
20.299999	84.015	-169.8987
20.600000	84.015	-170.2633
20.900000	84.009	-170.8786
21.200001	83.994	-171.3680
21.400000	83.981	-171.6301
21.799999	83.956	-172.0808
22.000000	83.947	-172.3032
22.400000	83.933	-172.7778
22.700001	83.923	-173.1704
23.000000	83.912	-173.5903
23.299999	83.898	-174.0158
23.600000	83.883	-174.4294
24.000000	83.866	-174.9483
24.299999	83.859	-175.3209
24.700001	83.859	-175.8253
25.000000	83.863	-176.2311
25.400000	83.868	-176.8167
25.799999	83.865	-177.4222
26.200001	83.851	-177.9866
26.500000	83.837	-178.3514
26.900000	83.820	-178.7529
27.200001	83.813	-179.0140
27.600000	83.813	-179.3635
28.000000	83.817	-179.7708
28.500000	83.812	179.6279
29.000000	83.786	179.0196
29.500000	83.745	178.5099
30.000000	83.709	178.0992
30.400000	83.691	177.7733
30.700001	83.681	177.4960
31.100000	83.666	177.0741
31.500000	83.645	176.6219
32.000000	83.611	176.0850
32.500000	83.577	175.6186
33.000000	83.555	175.1835
33.500000	83.540	174.7178
34.000000	83.523	174.2145
34.500000	83.497	173.7378
35.000000	83.470	173.3477
35.500000	83.451	173.0291
36.000000	83.446	172.6933
36.500000	83.442	172.2711
37.000000	83.422	171.7949
37.500000	83.386	171.3744
38.200001	83.333	170.9885
38.700001	83.313	170.7602
39.500000	83.295	170.1971
40.000000	83.267	169.7690
40.599998	83.219	169.3334
41.200001	83.173	169.0148
41.799999	83.136	168.7446
42.500000	83.105	168.4514
43.099998	83.090	168.1776
43.700001	83.078	167.7941
44.400002	83.045	167.2393
45.000000	83.001	166.7637
45.500000	82.958	166.3131
46.200001	82.851	165.5695
46.799999	82.688	165.2319
47.500000	82.515	165.7666
48.200001	82.520	166.6157
48.700001	82.608	166.6398
49.400002	82.682	165.7028
50.000000	82.639	164.7761
50.799999	82.535	164.1655
51.500000	82.488	163.9027
52.200001	82.466	163.5714
53.000000	82.445	163.1430
53.799999	82.421	162.6402
54.500000	82.382	162.1906
55.200001	82.334	161.8149
56.000000	82.277	161.4012
57.000000	82.187	160.9268
58.000000	82.105	160.5757
59.000000	82.035	160.1210
60.000000	81.947	159.7023
60.799999	81.886	159.4939
61.500000	81.846	159.3157
62.200001	81.810	159.0921
63.000000	81.762	158.8390
64.000000	81.706	158.5716
65.000000	81.653	158.1917
66.000000	81.574	157.7745
67.000000	81.490	157.4939
68.000000	81.414	157.2175
69.000000	81.325	157.0050
70.000000	81.241	157.0269
71.000000	81.190	157.1305
72.000000	81.147	157.0912
73.000000	81.082	157.0115
74.000000	81.013	157.0192
75.000000	80.961	156.9794
76.199997	80.904	156.8237
77.500000	80.864	156.6271
78.800003	80.844	156.3993
80.000000	80.849	156.2207
81.199997	80.865	155.7464
82.500000	80.777	154.9980
83.800003	80.623	154.9845
85.000000	80.569	155.1174
86.199997	80.515	154.7522
87.500000	80.417	154.5316
88.500000	80.367	154.4305
90.000000	80.258	154.2411
91.199997	80.177	154.4729
92.500000	80.148	154.5283
93.800003	80.106	154.1283
95.000000	80.026	153.5080
96.199997	79.867	152.9973
97.500000	79.674	153.2178
98.800003	79.558	153.6833
100.000000	79.450	153.9110
101.500000	79.256	154.5504
103.000000	79.123	155.7642
104.400002	79.058	156.7474
106.000000	79.017	157.9262
107.500000	79.033	158.6680
109.000000	79.044	159.0479
110.599998	79.172	159.3539
112.000000	79.407	158.6212
113.800003	79.601	156.9846
115.000000	79.662	156.5721
117.199997	79.693	157.3308
118.000000	79.690	158.0218
120.599998	79.799	158.3502
122.000000	79.645	156.6902
124.099998	79.329	154.9668
125.000000	79.253	154.4601
126.500000	79.185	153.8658
128.000000	79.144	153.5630
131.500000	78.998	153.3161
132.000000	78.973	153.2648
134.000000	78.873	153.0473
136.000000	78.787	152.9655
138.000000	78.703	153.0015
140.000000	78.614	153.0798
143.000000	78.522	153.0143
145.000000	78.465	152.8491
147.500000	78.354	152.8700
150.000000	78.234	153.0802
152.500000	78.132	153.0921
155.000000	78.045	153.0578
157.500000	77.958	153.0643
160.000000	77.860	153.1569
162.500000	77.773	153.2530
165.000000	77.696	153.3106
167.500000	77.616	153.4491
170.000000	77.535	153.6911
172.500000	77.451	153.9475
175.000000	77.368	154.2075
177.500000	77.296	154.5262
180.000000	77.243	154.8822
182.500000	77.200	155.1890
185.000000	77.160	155.4010
187.500000	77.120	155.5505
190.000000	77.083	155.6608
192.500000	77.045	155.7277
195.000000	77.002	155.7378
197.500000	76.952	155.7428
200.000000	76.900	155.8197
203.000000	76.836	155.9485
206.000000	76.759	156.0260
209.000000	76.674	156.0986
212.000000	76.615	156.2841
214.000000	76.588	156.4285
218.000000	76.518	156.6918
220.000000	76.475	156.7778
224.000000	76.394	156.9742
227.000000	76.333	157.1691
230.000000	76.260	157.3500
233.000000	76.190	157.5378
236.000000	76.133	157.7707
240.000000	76.067	158.0999
243.000000	76.019	158.3018
247.000000	75.956	158.5894
250.000000	75.908	158.8201
254.000000	75.838	159.1036
258.000000	75.769	159.3469
262.000000	75.709	159.5991
265.000000	75.660	159.8339
269.000000	75.588	160.1942
272.000000	75.539	160.4277
276.000000	75.483	160.7326
280.000000	75.430	161.0656
285.000000	75.364	161.4499
290.000000	75.306	161.8340
295.000000	75.240	162.1885
300.000000	75.159	162.5797
304.000000	75.102	162.9070
307.000000	75.071	163.1568
311.000000	75.035	163.5063
315.000000	74.996	163.8286
320.000000	74.948	164.2195
325.000000	74.898	164.6180
330.000000	74.849	165.0168
335.000000	74.805	165.3975
340.000000	74.757	165.7845
345.000000	74.708	166.1617
350.000000	74.672	166.5316
355.000000	74.628	166.9293
360.000000	74.582	167.3046
365.000000	74.540	167.6951
370.000000	74.505	168.0969
375.000000	74.468	168.4886
382.000000	74.414	168.9799
387.000000	74.377	169.2841
395.000000	74.320	169.8336
400.000000	74.290	170.2605
406.000000	74.257	170.7719
412.000000	74.222	171.2891
418.000000	74.180	171.8121
425.000000	74.127	172.2847
431.000000	74.096	172.6691
437.000000	74.078	173.0934
444.000000	74.050	173.6011
450.000000	74.018	174.0504
455.000000	73.990	174.4182
462.000000	73.954	174.9060
468.000000	73.931	175.3394
475.000000	73.901	175.8385
482.000000	73.872	176.3383
487.000000	73.850	176.6866
494.000000	73.823	177.1343
500.000000	73.800	177.5604
508.000000	73.779	178.1304
515.000000	73.760	178.6224
522.000000	73.738	179.1341
530.000000	73.713	179.7010
538.000000	73.694	-179.7584
545.000000	73.674	-179.3308
552.000000	73.656	-178.8838
560.000000	73.634	-178.2915
570.000000	73.608	-177.5918
580.000000	73.596	-176.9193
590.000000	73.567	-176.2630
600.000000	73.546	-175.6099
608.000000	73.538	-175.0502
615.000000	73.531	-174.5275
622.000000	73.524	-173.9996
630.000000	73.515	-173.3761
640.000000	73.505	-172.6283
650.000000	73.487	-171.9077
660.000000	73.485	-171.2089
670.000000	73.492	-170.5583
680.000000	73.492	-169.9082
690.000000	73.497	-169.2221
700.000000	73.499	-168.5094
710.000000	73.505	-167.7701
720.000000	73.522	-167.0453
730.000000	73.546	-166.3541
740.000000	73.563	-165.6676
750.000000	73.581	-164.9642
762.000000	73.606	-164.1495
775.000000	73.629	-163.3042
788.000000	73.665	-162.4234
800.000000	73.707	-161.6323
812.000000	73.741	-160.8315
825.000000	73.780	-159.9668
838.000000	73.828	-159.1142
850.000000	73.885	-158.3506
862.000000	73.943	-157.6149
875.000000	74.007	-156.8069
885.000000	74.061	-156.1704
900.000000	74.152	-155.2885
912.000000	74.224	-154.6020
925.000000	74.304	-153.8529
938.000000	74.388	-153.1354
950.000000	74.465	-152.5409
962.000000	74.541	-152.0101
975.000000	74.630	-151.4494
988.000000	74.726	-150.8874
1000.000000	74.814	-150.3633
1015.000000	74.933	-149.7461
1030.000000	75.053	-149.1877
1044.000000	75.157	-148.7247
1060.000000	75.269	-148.2773
1075.000000	75.384	-147.8844
1090.000000	75.503	-147.4971
1106.000000	75.626	-147.1014
1120.000000	75.723	-146.8207
1138.000000	75.844	-146.5423
1150.000000	75.929	-146.3553
1172.000000	76.081	-145.9845
1180.000000	76.134	-145.8612
1206.000000	76.299	-145.5567
1220.000000	76.383	-145.4428
1241.000000	76.513	-145.2702
1250.000000	76.568	-145.1953
1265.000000	76.657	-145.0616
1280.000000	76.739	-144.9214
1315.000000	76.921	-144.7175
1320.000000	76.947	-144.6975
1340.000000	77.051	-144.5651
1360.000000	77.154	-144.3790
1380.000000	77.253	-144.2246
1400.000000	77.354	-144.1102
1430.000000	77.504	-143.9553
1450.000000	77.598	-143.8504
1475.000000	77.718	-143.7416
1500.000000	77.840	-143.6831
1525.000000	77.958	-143.6025
1550.000000	78.070	-143.5008
1575.000000	78.184	-143.4458
1600.000000	78.296	-143.4332
1625.000000	78.411	-143.4266
1650.000000	78.528	-143.4227
1675.000000	78.640	-143.4313
1700.000000	78.748	-143.4404
1725.000000	78.857	-143.4509
1750.000000	78.969	-143.4914
1775.000000	79.082	-143.5453
1800.000000	79.191	-143.5918
1825.000000	79.298	-143.6609
1850.000000	79.405	-143.7713
1875.000000	79.514	-143.8960
1900.000000	79.623	-144.0158
1925.000000	79.733	-144.1467
1950.000000	79.843	-144.3142
1975.000000	79.951	-144.4896
2000.000000	80.055	-144.6777
2030.000000	80.179	-144.9520
2060.000000	80.305	-145.2553
2090.000000	80.431	-145.5736
2120.000000	80.557	-145.9294
2140.000000	80.639	-146.1870
2180.000000	80.796	-146.7531
2200.000000	80.873	-147.0589
2240.000000	81.024	-147.7000
2270.000000	81.133	-148.2057
2300.000000	81.239	-148.7386
2330.000000	81.341	-149.3021
2360.000000	81.438	-149.8976
2400.000000	81.562	-150.7392
2430.000000	81.650	-151.3877
2470.000000	81.758	-152.2809
2500.000000	81.833	-152.9655
2540.000000	81.926	-153.8998
2580.000000	82.009	-154.8592
2620.000000	82.084	-155.8320
2650.000000	82.134	-156.5704
2690.000000	82.192	-157.5580
2720.000000	82.230	-158.2961
2760.000000	82.271	-159.2818
2800.000000	82.299	-160.2694
2850.000000	82.328	-161.4761
2900.000000	82.345	-162.6457
2950.000000	82.351	-163.7855
3000.000000	82.347	-164.9209
3040.000000	82.337	-165.7995
3070.000000	82.325	-166.4290
3110.000000	82.306	-167.2430
3150.000000	82.282	-168.0336
3200.000000	82.249	-169.0018
3250.000000	82.206	-169.9332
3300.000000	82.159	-170.8297
3350.000000	82.109	-171.6828
3400.000000	82.052	-172.4729
3450.000000	81.993	-173.2243
3500.000000	81.932	-173.9357
3550.000000	81.867	-174.5943
3600.000000	81.800	-175.2213
3650.000000	81.735	-175.8142
3700.000000	81.670	-176.3645
3750.000000	81.603	-176.8816
3820.000000	81.510	-177.5846
3870.000000	81.448	-178.0747
3950.000000	81.346	-178.8065
4000.000000	81.281	-179.2553
4060.000000	81.201	-179.7626
4120.000000	81.120	179.7476
4180.000000	81.036	179.2640
4250.000000	80.938	178.7308
4310.000000	80.849	178.2942
4370.000000	80.757	177.9014
4440.000000	80.649	177.5222
4500.000000	80.555	177.2563
4550.000000	80.479	177.0742
4620.000000	80.385	176.8519
4680.000000	80.309	176.6487
4750.000000	80.219	176.3621
4820.000000	80.126	176.0801
4870.000000	80.056	175.9005
4940.000000	79.952	175.6848
5000.000000	79.862	175.5495
5080.000000	79.742	175.4308
5150.000000	79.644	175.3521
5220.000000	79.546	175.2775
5300.000000	79.429	175.2332
5380.000000	79.314	175.2717
5450.000000	79.215	175.3652
5520.000000	79.118	175.5378
5600.000000	79.011	175.8066
5700.000000	78.891	176.2462
5800.000000	78.791	176.7594
5900.000000	78.711	177.3681
6000.000000	78.653	178.0572
6080.000000	78.627	178.6370
6150.000000	78.616	179.1519
6220.000000	78.618	179.6739
6300.000000	78.638	-179.7452
6400.000000	78.688	-179.0554
6500.000000	78.769	-178.4118
6600.000000	78.880	-177.8463
6700.000000	79.024	-177.3878
6800.000000	79.199	-177.1037
6900.000000	79.406	-177.0370
7000.000000	79.645	-177.1983
7100.000000	79.913	-177.6054
7200.000000	80.208	-178.3533
7300.000000	80.526	-179.5402
7400.000000	80.856	178.7614
7500.000000	81.183	176.5126
7620.000000	81.554	173.0305
7750.000000	81.892	168.1669
7880.000000	82.107	162.1652
8000.000000	82.150	155.7723
8120.000000	82.007	148.7398
8250.000000	81.594	140.6555
8380.000000	80.857	132.6699
8500.000000	79.868	126.2733
8620.000000	78.627	121.7590
8750.000000	77.145	119.4891
8850.000000	76.025	119.4210
9000.000000	74.511	121.1931
9120.000000	73.471	123.5128
9250.000000	72.506	126.4808
9380.000000	71.680	129.7010
9500.000000	71.013	132.7838
9620.000000	70.414	135.9761
9750.000000	69.835	139.4886
9880.000000	69.324	142.9741
10000.000000	68.908	146.2098
10150.000000	68.438	150.3063
10300.000000	68.025	154.4219
10440.000000	67.698	158.2422
10600.000000	67.374	162.5737
10750.000000	67.101	166.6241
10900.000000	66.868	170.7079
11060.000000	66.673	175.0735
11200.000000	66.552	178.9566
11380.000000	66.445	-175.9420
11500.000000	66.419	-172.4765
11720.000000	66.489	-166.1350
11800.000000	66.547	-163.8545
12060.000000	66.851	-156.6462
12200.000000	67.100	-152.8558
12410.000000	67.598	-147.3307
12500.000000	67.859	-145.0747
12650.000000	68.359	-141.5551
12800.000000	68.951	-138.3692
13150.000000	70.698	-132.5430
13200.000000	70.993	-131.9775
13400.000000	72.291	-130.6809
13600.000000	73.748	-131.4269
13800.000000	75.270	-134.9967
14000.000000	76.662	-142.1854
14300.000000	77.935	-159.4785
14500.000000	78.001	-172.8383
14750.000000	77.270	172.5711
15000.000000	76.024	162.3480
15250.000000	74.685	155.7514
15500.000000	73.440	151.2361
15750.000000	72.303	147.6001
16000.000000	71.222	144.1542
16250.000000	70.107	140.6818
16500.000000	68.886	137.1668
16750.000000	67.496	133.4232
17000.000000	65.733	130.1783
17250.000000	63.217	134.9188
17500.000000	61.142	149.5277
17750.000000	60.624	159.1367
18000.000000	60.228	164.4599
18250.000000	59.739	169.7364
18500.000000	59.324	175.4788
18750.000000	59.036	-178.6396
19000.000000	58.868	-173.0520
19250.000000	58.823	-167.8300
19500.000000	58.893	-163.1413
19750.000000	59.044	-159.4015
20000.000000	59.183	-157.1732
