* Measurement data measured by REW V5.20.5
* Source: 마이크(THX Onyx USB Amplifie, MICROPHONE (마스), L, volume: 0.250
* Format: 128k Log Swept Sine, 4 sweeps at -5.0 dBFS with no timing reference
* Dated: 2022. 4. 18 오후 5:45:18
* REW Settings:
*  C-weighting compensation: Off
*  Target level: 75.0 dB
* Note: ; 
* Measurement: KEFm100_spinfit_Right
* Smoothing: 1/24 octave
* Frequency Step: 1/48 octave
* Start Frequency: 1.000 Hz
*
* Freq(Hz)	SPL(dB)	Phase(degrees)
1.000000	71.465	-43.6616
1.015000	71.437	-45.5760
1.030000	71.408	-47.4251
1.044000	71.377	-49.0857
1.060000	71.339	-50.8985
1.075000	71.301	-52.5081
1.090000	71.260	-54.0235
1.106000	71.212	-55.5292
1.120000	71.165	-56.7588
1.138000	71.096	-58.2290
1.150000	71.047	-59.1446
1.172000	70.947	-60.7008
1.180000	70.909	-61.2303
1.206000	70.777	-62.8322
1.220000	70.702	-63.6274
1.241000	70.584	-64.7448
1.250000	70.533	-65.1996
1.265000	70.446	-65.9303
1.280000	70.358	-66.6321
1.315000	70.150	-68.1907
1.320000	70.120	-68.4076
1.340000	70.002	-69.2698
1.360000	69.886	-70.1340
1.380000	69.774	-71.0144
1.400000	69.665	-71.9253
1.430000	69.514	-73.3799
1.450000	69.422	-74.4293
1.475000	69.319	-75.8505
1.500000	69.228	-77.3580
1.525000	69.148	-78.9272
1.550000	69.077	-80.5421
1.575000	69.013	-82.1868
1.600000	68.953	-83.8453
1.625000	68.895	-85.5016
1.650000	68.838	-87.1397
1.675000	68.780	-88.7437
1.700000	68.717	-90.2976
1.725000	68.649	-91.7854
1.750000	68.574	-93.1911
1.775000	68.488	-94.4988
1.800000	68.391	-95.6925
1.825000	68.280	-96.7561
1.850000	68.153	-97.6945
1.875000	68.011	-98.5501
1.900000	67.855	-99.3271
1.925000	67.689	-100.0276
1.950000	67.514	-100.6539
1.975000	67.332	-101.2080
2.000000	67.146	-101.6922
2.030000	66.919	-102.1840
2.060000	66.693	-102.5820
2.090000	66.470	-102.8900
2.120000	66.256	-103.1118
2.140000	66.119	-103.2136
2.180000	65.864	-103.3116
2.200000	65.749	-103.3099
2.240000	65.523	-103.1508
2.270000	65.353	-102.8903
2.300000	65.185	-102.5222
2.330000	65.021	-102.0582
2.360000	64.864	-101.5103
2.400000	64.669	-100.6700
2.430000	64.537	-99.9729
2.470000	64.383	-98.9767
2.500000	64.288	-98.1952
2.540000	64.192	-97.1298
2.580000	64.137	-96.0433
2.620000	64.120	-94.7930
2.650000	64.130	-93.7508
2.690000	64.170	-92.2634
2.720000	64.217	-91.1025
2.760000	64.301	-89.5358
2.800000	64.404	-87.9947
2.850000	64.554	-86.1830
2.900000	64.720	-84.5926
2.950000	64.896	-83.3008
3.000000	65.108	-82.1665
3.040000	65.301	-81.3478
3.070000	65.457	-80.7893
3.110000	65.675	-80.1237
3.150000	65.900	-79.5539
3.200000	66.182	-78.9854
3.250000	66.458	-78.5875
3.300000	66.716	-78.3723
3.350000	66.968	-78.4008
3.400000	67.226	-78.6713
3.450000	67.483	-79.1269
3.500000	67.735	-79.7104
3.550000	67.976	-80.3649
3.600000	68.202	-81.0334
3.650000	68.408	-81.6587
3.700000	68.591	-82.2357
3.750000	68.754	-82.8538
3.820000	68.957	-83.7731
3.870000	69.086	-84.4515
3.950000	69.273	-85.5403
4.000000	69.383	-86.2039
4.060000	69.509	-86.9763
4.120000	69.623	-87.7737
4.180000	69.724	-88.5788
4.250000	69.829	-89.4895
4.310000	69.911	-90.2126
4.370000	69.988	-90.8522
4.440000	70.070	-91.4680
4.500000	70.127	-91.9071
4.550000	70.169	-92.2202
4.620000	70.223	-92.5907
4.680000	70.270	-92.8569
4.750000	70.332	-93.1229
4.820000	70.403	-93.3326
4.870000	70.454	-93.4329
4.940000	70.529	-93.5210
5.000000	70.596	-93.5635
5.080000	70.694	-93.5988
5.150000	70.788	-93.6297
5.220000	70.892	-93.6243
5.300000	71.018	-93.5831
5.380000	71.152	-93.5411
5.450000	71.273	-93.5337
5.520000	71.397	-93.5764
5.600000	71.546	-93.6602
5.700000	71.741	-93.8105
5.800000	71.936	-94.0221
5.900000	72.123	-94.3080
6.000000	72.309	-94.6817
6.080000	72.456	-95.0247
6.150000	72.580	-95.3410
6.220000	72.698	-95.6596
6.300000	72.827	-96.0336
6.400000	72.979	-96.5317
6.500000	73.122	-97.0346
6.600000	73.259	-97.5111
6.700000	73.387	-97.9664
6.800000	73.507	-98.4069
6.900000	73.622	-98.8160
7.000000	73.737	-99.1781
7.100000	73.847	-99.4935
7.200000	73.955	-99.7740
7.300000	74.064	-100.0316
7.400000	74.176	-100.2686
7.500000	74.289	-100.4761
7.620000	74.427	-100.7090
7.750000	74.578	-100.9677
7.880000	74.734	-101.2204
8.000000	74.878	-101.4615
8.120000	75.020	-101.7264
8.250000	75.175	-102.0359
8.380000	75.327	-102.3607
8.500000	75.462	-102.6718
8.620000	75.594	-102.9978
8.750000	75.732	-103.3521
8.850000	75.835	-103.6171
9.000000	75.983	-104.0110
9.120000	76.099	-104.3149
9.250000	76.223	-104.6247
9.380000	76.344	-104.9180
9.500000	76.454	-105.1788
9.620000	76.560	-105.4302
9.750000	76.673	-105.6910
9.880000	76.777	-105.9519
10.000000	76.863	-106.1972
10.150000	76.960	-106.5058
10.300000	77.049	-106.8213
10.440000	77.123	-107.1226
10.600000	77.207	-107.4726
10.750000	77.294	-107.8064
10.900000	77.384	-108.1443
11.060000	77.481	-108.5023
11.200000	77.568	-108.8155
11.380000	77.671	-109.2044
11.500000	77.730	-109.4518
11.720000	77.832	-109.8845
11.800000	77.868	-110.0339
12.060000	77.986	-110.4971
12.200000	78.056	-110.7417
12.410000	78.165	-111.1031
12.500000	78.211	-111.2593
12.650000	78.287	-111.5200
12.800000	78.364	-111.7840
13.150000	78.539	-112.4210
13.200000	78.565	-112.5142
13.400000	78.670	-112.8932
13.600000	78.779	-113.2781
13.800000	78.891	-113.6676
14.000000	79.001	-114.0606
14.300000	79.156	-114.6554
14.500000	79.242	-115.0527
14.750000	79.338	-115.5491
15.000000	79.426	-116.0450
15.250000	79.530	-116.5432
15.500000	79.645	-117.0404
15.750000	79.765	-117.5349
16.000000	79.873	-118.0241
16.250000	79.974	-118.5084
16.500000	80.071	-118.9872
16.750000	80.174	-119.4589
17.000000	80.277	-119.9241
17.250000	80.380	-120.3841
17.500000	80.477	-120.8407
17.750000	80.571	-121.2962
18.000000	80.661	-121.7506
18.250000	80.750	-122.2038
18.500000	80.838	-122.6509
18.750000	80.926	-123.0879
19.000000	81.014	-123.5114
19.250000	81.101	-123.9191
19.500000	81.186	-124.3129
19.750000	81.270	-124.6948
20.000000	81.350	-125.0716
20.299999	81.442	-125.5247
20.600000	81.529	-125.9843
20.900000	81.611	-126.4512
21.200001	81.689	-126.9206
21.400000	81.738	-127.2300
21.799999	81.831	-127.8353
22.000000	81.875	-128.1301
22.400000	81.963	-128.7077
22.700001	82.033	-129.1366
23.000000	82.109	-129.5676
23.299999	82.185	-130.0033
23.600000	82.258	-130.4433
24.000000	82.354	-131.0352
24.299999	82.425	-131.4815
24.700001	82.516	-132.0777
25.000000	82.581	-132.5217
25.400000	82.662	-133.0979
25.799999	82.742	-133.6398
26.200001	82.824	-134.1406
26.500000	82.887	-134.4985
26.900000	82.972	-134.9762
27.200001	83.034	-135.3523
27.600000	83.110	-135.8854
28.000000	83.174	-136.4327
28.500000	83.236	-137.0738
29.000000	83.295	-137.6323
29.500000	83.366	-138.1640
30.000000	83.440	-138.7643
30.400000	83.490	-139.3072
30.700001	83.523	-139.7240
31.100000	83.561	-140.2387
31.500000	83.597	-140.6723
32.000000	83.650	-141.1148
32.500000	83.719	-141.5321
33.000000	83.797	-142.0001
33.500000	83.869	-142.5150
34.000000	83.932	-143.0294
34.500000	83.990	-143.5181
35.000000	84.048	-143.9920
35.500000	84.106	-144.4674
36.000000	84.160	-144.9445
36.500000	84.210	-145.4166
37.000000	84.253	-145.8828
37.500000	84.291	-146.3444
38.200001	84.344	-146.9765
38.700001	84.386	-147.4146
39.500000	84.448	-148.1073
40.000000	84.478	-148.5388
40.599998	84.507	-149.0438
41.200001	84.529	-149.5260
41.799999	84.549	-149.9939
42.500000	84.580	-150.5381
43.099998	84.616	-151.0027
43.700001	84.658	-151.4568
44.400002	84.712	-151.9700
45.000000	84.758	-152.3987
45.500000	84.793	-152.7499
46.200001	84.837	-153.2367
46.799999	84.872	-153.6538
47.500000	84.909	-154.1381
48.200001	84.945	-154.6092
48.700001	84.967	-154.9351
49.400002	84.988	-155.3818
50.000000	84.996	-155.7596
50.799999	85.000	-156.2516
51.500000	85.002	-156.6679
52.200001	85.010	-157.0760
53.000000	85.032	-157.5350
53.799999	85.064	-157.9783
54.500000	85.094	-158.3474
55.200001	85.126	-158.6985
56.000000	85.163	-159.0813
57.000000	85.205	-159.5406
58.000000	85.238	-160.0040
59.000000	85.259	-160.5238
60.000000	85.272	-161.1003
60.799999	85.280	-161.5506
61.500000	85.289	-161.9190
62.200001	85.301	-162.2729
63.000000	85.315	-162.6694
64.000000	85.339	-163.1496
65.000000	85.371	-163.6162
66.000000	85.405	-164.0786
67.000000	85.434	-164.5311
68.000000	85.452	-164.9677
69.000000	85.454	-165.3923
70.000000	85.443	-165.8091
71.000000	85.434	-166.2179
72.000000	85.430	-166.6163
73.000000	85.432	-167.0047
74.000000	85.443	-167.3864
75.000000	85.463	-167.7617
76.199997	85.490	-168.2034
77.500000	85.509	-168.6676
78.800003	85.514	-169.1183
80.000000	85.505	-169.5234
81.199997	85.485	-169.9133
82.500000	85.469	-170.3139
83.800003	85.477	-170.6949
85.000000	85.501	-171.0445
86.199997	85.525	-171.4067
87.500000	85.540	-171.8166
88.500000	85.541	-172.1391
90.000000	85.527	-172.6181
91.199997	85.509	-172.9882
92.500000	85.495	-173.3779
93.800003	85.493	-173.7582
95.000000	85.501	-174.1012
96.199997	85.511	-174.4360
97.500000	85.516	-174.7893
98.800003	85.507	-175.1352
100.000000	85.489	-175.4506
101.500000	85.460	-175.8375
103.000000	85.440	-176.2150
104.400002	85.435	-176.5607
106.000000	85.437	-176.9459
107.500000	85.431	-177.2976
109.000000	85.411	-177.6416
110.599998	85.377	-177.9975
112.000000	85.345	-178.2985
113.800003	85.318	-178.6702
115.000000	85.310	-178.9078
117.199997	85.298	-179.3273
118.000000	85.287	-179.4767
120.599998	85.226	-179.9467
122.000000	85.188	179.8168
124.099998	85.141	179.4946
125.000000	85.124	179.3758
126.500000	85.096	179.2166
128.000000	85.062	179.1195
131.500000	84.970	179.1266
132.000000	84.962	179.1370
134.000000	84.955	179.1183
136.000000	84.964	178.9573
138.000000	84.946	178.7256
140.000000	84.880	178.5792
143.000000	84.746	178.8239
145.000000	84.686	179.4466
147.500000	84.702	-179.2586
150.000000	84.873	-177.9536
152.500000	85.169	-177.6407
155.000000	85.455	-178.6005
157.500000	85.622	179.8403
160.000000	85.666	178.3390
162.500000	85.648	177.1153
165.000000	85.619	176.1503
167.500000	85.592	175.3767
170.000000	85.550	174.7336
172.500000	85.498	174.1786
175.000000	85.456	173.6864
177.500000	85.420	173.2410
180.000000	85.369	172.8312
182.500000	85.301	172.4492
185.000000	85.228	172.0908
187.500000	85.159	171.7513
190.000000	85.095	171.4280
192.500000	85.047	171.1190
195.000000	85.020	170.8233
197.500000	85.004	170.5379
200.000000	84.981	170.2612
203.000000	84.947	169.9424
206.000000	84.917	169.6397
209.000000	84.885	169.3510
212.000000	84.845	169.0729
214.000000	84.820	168.8931
218.000000	84.774	168.5485
220.000000	84.746	168.3833
224.000000	84.685	168.0678
227.000000	84.645	167.8469
230.000000	84.603	167.6439
233.000000	84.557	167.4641
236.000000	84.515	167.3154
240.000000	84.466	167.1695
243.000000	84.438	167.0842
247.000000	84.420	166.9439
250.000000	84.407	166.7821
254.000000	84.373	166.4953
258.000000	84.330	166.1807
262.000000	84.281	165.8824
265.000000	84.246	165.6763
269.000000	84.199	165.4227
272.000000	84.161	165.2477
276.000000	84.108	165.0320
280.000000	84.056	164.8334
285.000000	83.997	164.6065
290.000000	83.943	164.3981
295.000000	83.884	164.2020
300.000000	83.821	164.0115
304.000000	83.768	163.8653
307.000000	83.730	163.7616
311.000000	83.682	163.6293
315.000000	83.635	163.5037
320.000000	83.581	163.3558
325.000000	83.526	163.2193
330.000000	83.467	163.0890
335.000000	83.409	162.9641
340.000000	83.354	162.8512
345.000000	83.303	162.7501
350.000000	83.250	162.6602
355.000000	83.191	162.5805
360.000000	83.132	162.5088
365.000000	83.074	162.4454
370.000000	83.017	162.3932
375.000000	82.960	162.3515
382.000000	82.881	162.3027
387.000000	82.826	162.2739
395.000000	82.742	162.2367
400.000000	82.692	162.2212
406.000000	82.631	162.2114
412.000000	82.565	162.2102
418.000000	82.500	162.2155
425.000000	82.430	162.2317
431.000000	82.370	162.2565
437.000000	82.308	162.2900
444.000000	82.233	162.3408
450.000000	82.171	162.3941
455.000000	82.125	162.4456
462.000000	82.061	162.5278
468.000000	82.007	162.6074
475.000000	81.944	162.7127
482.000000	81.882	162.8312
487.000000	81.836	162.9232
494.000000	81.771	163.0565
500.000000	81.718	163.1743
508.000000	81.649	163.3397
515.000000	81.587	163.4918
522.000000	81.526	163.6515
530.000000	81.463	163.8406
538.000000	81.404	164.0353
545.000000	81.346	164.2135
552.000000	81.283	164.3995
560.000000	81.213	164.6204
570.000000	81.141	164.9100
580.000000	81.072	165.2177
590.000000	80.993	165.5450
600.000000	80.912	165.8889
608.000000	80.854	166.1766
615.000000	80.809	166.4347
622.000000	80.766	166.6968
630.000000	80.717	167.0031
640.000000	80.657	167.3956
650.000000	80.599	167.7945
660.000000	80.542	168.1978
670.000000	80.489	168.6099
680.000000	80.438	169.0290
690.000000	80.384	169.4476
700.000000	80.331	169.8712
710.000000	80.285	170.3041
720.000000	80.243	170.7431
730.000000	80.206	171.1857
740.000000	80.172	171.6317
750.000000	80.138	172.0824
762.000000	80.101	172.6350
775.000000	80.066	173.2425
788.000000	80.038	173.8558
800.000000	80.018	174.4201
812.000000	80.001	174.9700
825.000000	79.984	175.5409
838.000000	79.974	176.0865
850.000000	79.966	176.5571
862.000000	79.957	176.9857
875.000000	79.952	177.3950
885.000000	79.952	177.6598
900.000000	79.947	177.9589
912.000000	79.929	178.1245
925.000000	79.891	178.2836
938.000000	79.830	178.5122
950.000000	79.757	178.8761
962.000000	79.680	179.4357
975.000000	79.612	-179.7574
988.000000	79.571	-178.8269
1000.000000	79.560	-177.9473
1015.000000	79.575	-176.9139
1030.000000	79.611	-176.0099
1044.000000	79.654	-175.2857
1060.000000	79.708	-174.5664
1075.000000	79.758	-173.9726
1090.000000	79.812	-173.4557
1106.000000	79.871	-172.9781
1120.000000	79.923	-172.6083
1138.000000	79.986	-172.1942
1150.000000	80.025	-171.9478
1172.000000	80.086	-171.5407
1180.000000	80.105	-171.4045
1206.000000	80.150	-170.9977
1220.000000	80.162	-170.7986
1241.000000	80.169	-170.5137
1250.000000	80.173	-170.3935
1265.000000	80.193	-170.1929
1280.000000	80.240	-169.9921
1315.000000	80.435	-169.5192
1320.000000	80.465	-169.4520
1340.000000	80.577	-169.1875
1360.000000	80.668	-168.9251
1380.000000	80.730	-168.6628
1400.000000	80.766	-168.4005
1430.000000	80.798	-168.0068
1450.000000	80.815	-167.7521
1475.000000	80.843	-167.4451
1500.000000	80.876	-167.1369
1525.000000	80.907	-166.8153
1550.000000	80.936	-166.4832
1575.000000	80.970	-166.1463
1600.000000	81.006	-165.8022
1625.000000	81.043	-165.4442
1650.000000	81.083	-165.0665
1675.000000	81.123	-164.6714
1700.000000	81.166	-164.2699
1725.000000	81.213	-163.8690
1750.000000	81.262	-163.4701
1775.000000	81.309	-163.0779
1800.000000	81.355	-162.6874
1825.000000	81.406	-162.2991
1850.000000	81.458	-161.9236
1875.000000	81.511	-161.5675
1900.000000	81.564	-161.2294
1925.000000	81.619	-160.9049
1950.000000	81.676	-160.5866
1975.000000	81.733	-160.2708
2000.000000	81.791	-159.9585
2030.000000	81.862	-159.5920
2060.000000	81.933	-159.2341
2090.000000	82.003	-158.8802
2120.000000	82.072	-158.5179
2140.000000	82.118	-158.2673
2180.000000	82.208	-157.7519
2200.000000	82.251	-157.4898
2240.000000	82.334	-156.9480
2270.000000	82.393	-156.5126
2300.000000	82.449	-156.0314
2330.000000	82.507	-155.4766
2360.000000	82.574	-154.8218
2400.000000	82.695	-153.7981
2430.000000	82.824	-152.9861
2470.000000	83.055	-152.0660
2500.000000	83.262	-151.6541
2540.000000	83.538	-151.5548
2580.000000	83.776	-151.8309
2620.000000	83.970	-152.2522
2650.000000	84.095	-152.5755
2690.000000	84.246	-152.9715
2720.000000	84.353	-153.2299
2760.000000	84.489	-153.5253
2800.000000	84.621	-153.7839
2850.000000	84.783	-154.1005
2900.000000	84.943	-154.4370
2950.000000	85.102	-154.7991
3000.000000	85.260	-155.1980
3040.000000	85.386	-155.5516
3070.000000	85.480	-155.8428
3110.000000	85.604	-156.2783
3150.000000	85.727	-156.7789
3200.000000	85.882	-157.4930
3250.000000	86.035	-158.2920
3300.000000	86.182	-159.1764
3350.000000	86.323	-160.1510
3400.000000	86.456	-161.2192
3450.000000	86.578	-162.3887
3500.000000	86.680	-163.6607
3550.000000	86.755	-165.0155
3600.000000	86.793	-166.4160
3650.000000	86.781	-167.7834
3700.000000	86.714	-168.9686
3750.000000	86.609	-169.7925
3820.000000	86.461	-170.1979
3870.000000	86.404	-170.0953
3950.000000	86.430	-169.8198
4000.000000	86.500	-169.8212
4060.000000	86.600	-170.0884
4120.000000	86.692	-170.5991
4180.000000	86.763	-171.2684
4250.000000	86.817	-172.1697
4310.000000	86.846	-173.0048
4370.000000	86.868	-173.8703
4440.000000	86.901	-174.9008
4500.000000	86.936	-175.7870
4550.000000	86.968	-176.5113
4620.000000	87.011	-177.4837
4680.000000	87.046	-178.2766
4750.000000	87.087	-179.1797
4820.000000	87.133	179.8094
4870.000000	87.157	178.9684
4940.000000	87.162	177.7235
5000.000000	87.145	176.6642
5080.000000	87.098	175.2729
5150.000000	87.039	174.0559
5220.000000	86.966	172.8142
5300.000000	86.860	171.3659
5380.000000	86.734	169.9216
5450.000000	86.606	168.6822
5520.000000	86.462	167.4826
5600.000000	86.273	166.1944
5700.000000	85.993	164.7851
5800.000000	85.673	163.6872
5900.000000	85.337	162.9988
6000.000000	85.008	162.7698
6080.000000	84.766	162.8745
6150.000000	84.575	163.1358
6220.000000	84.402	163.5314
6300.000000	84.222	164.1231
6400.000000	84.024	165.0443
6500.000000	83.867	166.1333
6600.000000	83.758	167.3364
6700.000000	83.700	168.5914
6800.000000	83.698	169.8333
6900.000000	83.750	171.0009
7000.000000	83.851	172.0504
7100.000000	83.997	172.9441
7200.000000	84.196	173.6185
7300.000000	84.452	173.9884
7400.000000	84.754	173.9804
7500.000000	85.075	173.5309
7620.000000	85.452	172.3061
7750.000000	85.798	170.0612
7880.000000	86.009	166.9592
8000.000000	86.055	163.5086
8120.000000	85.969	159.6999
8250.000000	85.746	155.4456
8380.000000	85.412	151.3534
8500.000000	85.037	147.9086
8620.000000	84.605	144.8610
8750.000000	84.073	142.0225
8850.000000	83.632	140.1740
9000.000000	82.954	138.0052
9120.000000	82.396	136.8442
9250.000000	81.787	136.1787
9380.000000	81.196	136.0972
9500.000000	80.672	136.4802
9620.000000	80.182	137.2319
9750.000000	79.702	138.3938
9880.000000	79.278	139.8711
10000.000000	78.937	141.4463
10150.000000	78.591	143.5431
10300.000000	78.339	145.6340
10440.000000	78.185	147.4982
10600.000000	78.075	149.4439
10750.000000	78.027	150.9907
10900.000000	78.048	152.1429
11060.000000	78.147	152.7926
11200.000000	78.284	152.7646
11380.000000	78.486	151.7562
11500.000000	78.604	150.3935
11720.000000	78.712	146.3985
11800.000000	78.697	144.5139
12060.000000	78.346	137.4072
12200.000000	77.941	133.4503
12410.000000	77.073	128.2548
12500.000000	76.623	126.4907
12650.000000	75.796	124.3059
12800.000000	74.921	123.0953
13150.000000	72.987	123.1091
13200.000000	72.716	123.3426
13400.000000	71.616	124.9376
13600.000000	70.531	127.4655
13800.000000	69.531	130.6474
14000.000000	68.663	134.2949
14300.000000	67.624	140.3794
14500.000000	67.089	144.7404
14750.000000	66.547	150.3654
15000.000000	66.100	156.0955
15250.000000	65.731	161.8508
15500.000000	65.427	167.5553
15750.000000	65.240	173.1301
16000.000000	65.282	178.4903
16250.000000	65.577	-176.4683
16500.000000	66.088	-171.9351
16750.000000	66.812	-168.4055
17000.000000	67.729	-166.6309
17250.000000	68.791	-167.4571
17500.000000	69.840	-171.8949
17750.000000	70.562	179.4188
18000.000000	70.644	167.4709
18250.000000	69.936	155.2596
18500.000000	68.536	145.8860
18750.000000	66.732	140.6097
19000.000000	64.812	139.0199
19250.000000	62.980	140.1954
19500.000000	61.261	143.2912
19750.000000	59.608	147.2458
20000.000000	58.475	149.9048
