* Measurement data measured by REW V5.20.13
* Source: EXCL: Microphone(High Definition Audio Device), MICROPHONE (마스), R, volume: 1.000
* Format: 256k Log Swept Sine, 1 sweep at -12.0 dBFS with no timing reference
* Dated: 2023. 2. 22 오후 10:05:11
* REW Settings:
*  C-weighting compensation: Off
*  Target level: 75.0 dB
* Note: 
* Measurement: L_Deep
* Smoothing: 1/24 octave
* Frequency Step: 1/48 octave
* Start Frequency: 20.300 Hz
*
* Freq(Hz)	SPL(dB)	Phase(degrees)
20.299999	97.816	5.9006
20.600000	97.820	5.8196
20.900000	97.826	5.6778
21.200001	97.829	5.5463
21.400000	97.831	5.4534
21.799999	97.832	5.2259
22.000000	97.833	5.0812
22.400000	97.830	4.7294
22.700001	97.825	4.4253
23.000000	97.817	4.1055
23.299999	97.806	3.7842
23.600000	97.795	3.4676
24.000000	97.787	3.0531
24.299999	97.787	2.7418
24.700001	97.793	2.3173
25.000000	97.800	1.9903
25.400000	97.811	1.5537
25.799999	97.820	1.1421
26.200001	97.829	0.7781
26.500000	97.837	0.5355
26.900000	97.849	0.2364
27.200001	97.857	0.0163
27.600000	97.867	-0.2811
28.000000	97.872	-0.5768
28.500000	97.871	-0.9204
29.000000	97.864	-1.2243
29.500000	97.855	-1.5132
30.000000	97.844	-1.8238
30.400000	97.835	-2.0906
30.700001	97.826	-2.2922
31.100000	97.814	-2.5527
31.500000	97.802	-2.8072
32.000000	97.792	-3.1401
32.500000	97.784	-3.5116
33.000000	97.777	-3.9149
33.500000	97.771	-4.3178
34.000000	97.766	-4.6884
34.500000	97.763	-5.0205
35.000000	97.762	-5.3242
35.500000	97.765	-5.6127
36.000000	97.768	-5.8976
36.500000	97.769	-6.1814
37.000000	97.767	-6.4599
37.500000	97.761	-6.7326
38.200001	97.746	-7.1094
38.700001	97.731	-7.3717
39.500000	97.706	-7.7767
40.000000	97.691	-8.0362
40.599998	97.676	-8.3720
41.200001	97.661	-8.7303
41.799999	97.649	-9.0962
42.500000	97.637	-9.5266
43.099998	97.629	-9.8909
43.700001	97.620	-10.2270
44.400002	97.608	-10.5745
45.000000	97.600	-10.8590
45.500000	97.595	-11.1030
46.200001	97.584	-11.4420
46.799999	97.570	-11.7004
47.500000	97.555	-11.9640
48.200001	97.543	-12.2388
48.700001	97.536	-12.4605
49.400002	97.521	-12.7887
50.000000	97.509	-13.0669
50.799999	97.498	-13.4447
51.500000	97.489	-13.7971
52.200001	97.474	-14.1543
53.000000	97.455	-14.5379
53.799999	97.437	-14.8959
54.500000	97.421	-15.2019
55.200001	97.408	-15.5081
56.000000	97.391	-15.8657
57.000000	97.362	-16.2966
58.000000	97.331	-16.6919
59.000000	97.299	-17.0663
60.000000	97.270	-17.3974
60.799999	97.257	-17.7034
61.500000	97.244	-18.0220
62.200001	97.225	-18.3362
63.000000	97.203	-18.6602
64.000000	97.181	-19.0586
65.000000	97.156	-19.4552
66.000000	97.130	-19.8115
67.000000	97.108	-20.1537
68.000000	97.083	-20.5273
69.000000	97.049	-20.8681
70.000000	97.015	-21.1595
71.000000	96.984	-21.4698
72.000000	96.949	-21.7983
73.000000	96.911	-22.1085
74.000000	96.879	-22.4059
75.000000	96.851	-22.7411
76.199997	96.818	-23.1702
77.500000	96.781	-23.6336
78.800003	96.736	-24.0267
80.000000	96.700	-24.3522
81.199997	96.662	-24.7227
82.500000	96.614	-25.0934
83.800003	96.571	-25.4176
85.000000	96.540	-25.7580
86.199997	96.508	-26.1296
87.500000	96.473	-26.5257
88.500000	96.449	-26.8311
90.000000	96.408	-27.2676
91.199997	96.371	-27.5748
92.500000	96.331	-27.9042
93.800003	96.285	-28.2373
95.000000	96.243	-28.5259
96.199997	96.202	-28.8339
97.500000	96.159	-29.1690
98.800003	96.116	-29.4837
100.000000	96.077	-29.7511
101.500000	96.031	-30.0763
103.000000	95.984	-30.4256
104.400002	95.938	-30.7477
106.000000	95.888	-31.0848
107.500000	95.845	-31.4126
109.000000	95.799	-31.7142
110.599998	95.754	-32.0168
112.000000	95.715	-32.3323
113.800003	95.659	-32.8180
115.000000	95.619	-33.1216
117.199997	95.556	-33.5771
118.000000	95.536	-33.7138
120.599998	95.462	-34.1130
122.000000	95.411	-34.3360
124.099998	95.330	-34.6972
125.000000	95.299	-34.8756
126.500000	95.251	-35.1875
128.000000	95.210	-35.4835
131.500000	95.121	-36.0434
132.000000	95.106	-36.1129
134.000000	95.042	-36.3673
136.000000	94.980	-36.6362
138.000000	94.919	-36.9976
140.000000	94.854	-37.3685
143.000000	94.760	-37.8195
145.000000	94.696	-38.0842
147.500000	94.619	-38.3842
150.000000	94.551	-38.6732
152.500000	94.482	-38.9914
155.000000	94.399	-39.3134
157.500000	94.318	-39.6169
160.000000	94.249	-39.9613
162.500000	94.174	-40.2773
165.000000	94.107	-40.5363
167.500000	94.036	-40.8917
170.000000	93.955	-41.2166
172.500000	93.877	-41.4662
175.000000	93.800	-41.6921
177.500000	93.725	-41.9254
180.000000	93.655	-42.2122
182.500000	93.582	-42.4938
185.000000	93.513	-42.6877
187.500000	93.450	-42.8741
190.000000	93.379	-43.0764
192.500000	93.309	-43.2524
195.000000	93.243	-43.4321
197.500000	93.176	-43.5993
200.000000	93.105	-43.7819
203.000000	93.017	-44.0284
206.000000	92.940	-44.2376
209.000000	92.863	-44.4226
212.000000	92.775	-44.6172
214.000000	92.717	-44.7304
218.000000	92.618	-44.9400
220.000000	92.567	-45.0570
224.000000	92.456	-45.2594
227.000000	92.380	-45.3959
230.000000	92.306	-45.5306
233.000000	92.229	-45.6697
236.000000	92.150	-45.8010
240.000000	92.054	-45.9717
243.000000	91.986	-46.1062
247.000000	91.880	-46.2458
250.000000	91.794	-46.3357
254.000000	91.699	-46.4004
258.000000	91.609	-46.4143
262.000000	91.493	-46.4935
265.000000	91.413	-46.5826
269.000000	91.325	-46.7017
272.000000	91.252	-46.7825
276.000000	91.151	-46.8830
280.000000	91.062	-46.9375
285.000000	90.964	-46.9383
290.000000	90.862	-46.9749
295.000000	90.737	-46.9796
300.000000	90.621	-46.9474
304.000000	90.536	-46.9117
307.000000	90.472	-46.8489
311.000000	90.386	-46.7505
315.000000	90.299	-46.6328
320.000000	90.200	-46.5003
325.000000	90.117	-46.3156
330.000000	90.048	-46.0197
335.000000	89.977	-45.7377
340.000000	89.920	-45.4211
345.000000	89.887	-45.1752
350.000000	89.868	-45.1096
355.000000	89.843	-45.2343
360.000000	89.796	-45.4851
365.000000	89.718	-45.7872
370.000000	89.619	-45.9445
375.000000	89.515	-46.0105
382.000000	89.380	-46.0087
387.000000	89.287	-46.0321
395.000000	89.136	-46.0570
400.000000	89.046	-46.0303
406.000000	88.942	-45.9061
412.000000	88.833	-45.7886
418.000000	88.733	-45.7140
425.000000	88.611	-45.5942
431.000000	88.509	-45.3841
437.000000	88.414	-45.1398
444.000000	88.318	-44.9883
450.000000	88.232	-44.8387
455.000000	88.161	-44.6501
462.000000	88.064	-44.3208
468.000000	87.976	-44.0598
475.000000	87.882	-43.8331
482.000000	87.784	-43.6257
487.000000	87.708	-43.4250
494.000000	87.605	-43.1368
500.000000	87.532	-42.8802
508.000000	87.444	-42.4254
515.000000	87.368	-42.0935
522.000000	87.289	-41.8287
530.000000	87.209	-41.5140
538.000000	87.132	-41.2370
545.000000	87.046	-40.9353
552.000000	86.959	-40.5822
560.000000	86.883	-40.1465
570.000000	86.775	-39.6526
580.000000	86.648	-39.1527
590.000000	86.553	-38.4888
600.000000	86.469	-37.8526
608.000000	86.407	-37.3806
615.000000	86.352	-36.9685
622.000000	86.289	-36.5696
630.000000	86.210	-36.1201
640.000000	86.132	-35.5449
650.000000	86.070	-34.9322
660.000000	85.982	-34.2664
670.000000	85.920	-33.6038
680.000000	85.881	-32.9064
690.000000	85.819	-32.1976
700.000000	85.745	-31.5164
710.000000	85.680	-30.9967
720.000000	85.615	-30.5648
730.000000	85.555	-29.8889
740.000000	85.507	-29.1114
750.000000	85.466	-28.3501
762.000000	85.441	-27.4877
775.000000	85.401	-26.7360
788.000000	85.328	-25.7973
800.000000	85.289	-24.9001
812.000000	85.274	-24.0731
825.000000	85.256	-23.0858
838.000000	85.229	-22.0820
850.000000	85.231	-21.2682
862.000000	85.234	-20.4995
875.000000	85.245	-19.6637
885.000000	85.261	-19.0535
900.000000	85.288	-18.1025
912.000000	85.298	-17.2777
925.000000	85.314	-16.4512
938.000000	85.351	-15.6654
950.000000	85.406	-14.9615
962.000000	85.467	-14.3520
975.000000	85.526	-13.7300
988.000000	85.581	-13.0974
1000.000000	85.638	-12.5519
1015.000000	85.719	-11.9871
1030.000000	85.782	-11.4082
1044.000000	85.839	-10.8286
1060.000000	85.915	-10.3007
1075.000000	85.982	-10.0190
1090.000000	86.051	-9.8094
1106.000000	86.136	-9.5232
1120.000000	86.212	-9.3420
1138.000000	86.308	-9.1655
1150.000000	86.379	-8.9677
1172.000000	86.492	-8.6883
1180.000000	86.522	-8.6322
1206.000000	86.621	-8.4096
1220.000000	86.681	-8.2366
1241.000000	86.769	-8.1346
1250.000000	86.802	-8.1371
1265.000000	86.850	-8.1582
1280.000000	86.893	-8.1583
1315.000000	87.009	-7.8459
1320.000000	87.025	-7.8077
1340.000000	87.085	-7.7900
1360.000000	87.135	-7.8620
1380.000000	87.184	-7.8081
1400.000000	87.234	-7.6989
1430.000000	87.314	-7.5876
1450.000000	87.373	-7.5342
1475.000000	87.426	-7.5085
1500.000000	87.467	-7.4725
1525.000000	87.514	-7.4179
1550.000000	87.548	-7.2981
1575.000000	87.590	-7.1314
1600.000000	87.650	-7.0124
1625.000000	87.711	-6.9977
1650.000000	87.761	-7.0296
1675.000000	87.803	-7.1075
1700.000000	87.840	-7.2568
1725.000000	87.855	-7.4512
1750.000000	87.822	-7.5550
1775.000000	87.760	-7.4842
1800.000000	87.679	-7.1472
1825.000000	87.603	-6.4354
1850.000000	87.566	-5.4247
1875.000000	87.591	-4.2491
1900.000000	87.669	-3.1351
1925.000000	87.782	-2.2341
1950.000000	87.912	-1.5901
1975.000000	88.044	-1.1499
2000.000000	88.170	-0.8250
2030.000000	88.313	-0.5020
2060.000000	88.447	-0.2909
2090.000000	88.569	-0.0982
2120.000000	88.682	0.0792
2140.000000	88.753	0.1867
2180.000000	88.900	0.3278
2200.000000	88.978	0.3653
2240.000000	89.123	0.4288
2270.000000	89.225	0.4548
2300.000000	89.320	0.4221
2330.000000	89.418	0.3720
2360.000000	89.519	0.3545
2400.000000	89.651	0.3282
2430.000000	89.744	0.2461
2470.000000	89.864	0.1220
2500.000000	89.957	0.0059
2540.000000	90.083	-0.2242
2580.000000	90.198	-0.4483
2620.000000	90.303	-0.6821
2650.000000	90.379	-0.8784
2690.000000	90.484	-1.1468
2720.000000	90.561	-1.3823
2760.000000	90.652	-1.7519
2800.000000	90.738	-2.1392
2850.000000	90.839	-2.6120
2900.000000	90.933	-3.1154
2950.000000	91.013	-3.6137
3000.000000	91.087	-4.1591
3040.000000	91.138	-4.6071
3070.000000	91.173	-4.9415
3110.000000	91.216	-5.3830
3150.000000	91.249	-5.8219
3200.000000	91.278	-6.3543
3250.000000	91.297	-6.8479
3300.000000	91.307	-7.3073
3350.000000	91.310	-7.7516
3400.000000	91.302	-8.1750
3450.000000	91.294	-8.5293
3500.000000	91.285	-8.8379
3550.000000	91.272	-9.1475
3600.000000	91.254	-9.3717
3650.000000	91.228	-9.5126
3700.000000	91.194	-9.6079
3750.000000	91.158	-9.6518
3820.000000	91.108	-9.5893
3870.000000	91.059	-9.4731
3950.000000	90.973	-9.1832
4000.000000	90.918	-8.9198
4060.000000	90.853	-8.5245
4120.000000	90.795	-8.0495
4180.000000	90.739	-7.4972
4250.000000	90.670	-6.7549
4310.000000	90.612	-6.0398
4370.000000	90.554	-5.2208
4440.000000	90.484	-4.1951
4500.000000	90.432	-3.2603
4550.000000	90.397	-2.4222
4620.000000	90.358	-1.1479
4680.000000	90.333	0.0160
4750.000000	90.312	1.4086
4820.000000	90.303	2.8443
4870.000000	90.307	3.9096
4940.000000	90.325	5.4543
5000.000000	90.351	6.7963
5080.000000	90.400	8.5858
5150.000000	90.443	10.1627
5220.000000	90.487	11.9320
5300.000000	90.597	14.1912
5380.000000	90.758	16.3125
5450.000000	90.913	18.0838
5520.000000	91.085	19.8319
5600.000000	91.306	21.7989
5700.000000	91.619	24.1220
5800.000000	91.938	26.1873
5900.000000	92.234	28.6094
6000.000000	92.684	31.4872
6080.000000	93.126	33.3450
6150.000000	93.534	34.7088
6220.000000	93.965	35.9149
6300.000000	94.491	37.0933
6400.000000	95.202	38.1924
6500.000000	95.973	38.7935
6600.000000	96.799	38.7411
6700.000000	97.669	37.8618
6800.000000	98.562	35.9728
6900.000000	99.451	32.9027
7000.000000	100.276	28.5414
7100.000000	100.954	22.9525
7200.000000	101.415	16.4468
7300.000000	101.617	9.5884
7400.000000	101.564	3.0682
7500.000000	101.301	-2.5133
7620.000000	100.824	-7.4955
7750.000000	100.266	-10.7055
7880.000000	99.758	-12.1623
8000.000000	99.425	-12.8102
8120.000000	99.229	-13.6658
8250.000000	99.054	-15.4429
8380.000000	98.751	-17.8939
8500.000000	98.273	-19.7790
8620.000000	97.649	-20.2586
8750.000000	96.969	-18.7625
8850.000000	96.562	-16.4649
9000.000000	96.259	-12.1162
9120.000000	96.295	-8.5928
9250.000000	96.585	-5.3463
9380.000000	97.092	-3.1820
9500.000000	97.702	-2.5429
9620.000000	98.382	-3.5846
9750.000000	99.087	-6.9645
9880.000000	99.601	-12.7111
10000.000000	99.777	-19.4984
10150.000000	99.548	-28.4637
10300.000000	98.854	-36.7353
10440.000000	97.814	-42.3847
10600.000000	96.409	-45.4545
10750.000000	95.118	-45.7259
10900.000000	93.957	-44.3054
11060.000000	92.889	-41.5357
11200.000000	92.102	-38.3863
11380.000000	91.292	-33.7000
11500.000000	90.875	-30.3336
11720.000000	90.364	-23.9480
11800.000000	90.261	-21.6268
12060.000000	90.231	-14.4979
12200.000000	90.408	-11.2041
12410.000000	90.924	-7.6217
12500.000000	91.238	-6.8392
12650.000000	91.864	-7.0217
12800.000000	92.533	-9.7183
13150.000000	93.193	-27.7155
13200.000000	93.074	-31.1790
13400.000000	91.945	-44.1388
13600.000000	89.970	-52.5228
13800.000000	87.612	-55.3137
14000.000000	85.283	-53.8892
14300.000000	82.222	-47.0824
14500.000000	80.494	-40.7544
14750.000000	78.638	-31.6502
15000.000000	77.076	-21.7415
15250.000000	75.786	-11.4146
15500.000000	74.785	-0.6849
15750.000000	74.076	10.2360
16000.000000	73.603	21.1478
16250.000000	73.354	32.0429
16500.000000	73.393	42.6339
16750.000000	73.744	52.0163
17000.000000	74.389	59.9991
17250.000000	75.486	66.1647
17500.000000	76.973	67.4368
17750.000000	78.225	60.3567
18000.000000	78.411	45.5132
18250.000000	77.077	30.6622
18500.000000	74.480	23.7273
18750.000000	71.309	25.4110
19000.000000	68.174	32.7810
19250.000000	65.321	43.5231
19500.000000	62.761	56.0935
19750.000000	60.540	68.7059
20000.000000	59.149	76.4804
