* Measurement data measured by REW V5.20.7
* Source: 마이크(Realtek High Definition Audi, MICROPHONE (마스), L, volume: 0.050
* Format: 128k Log Swept Sine, 1 sweep at -12.0 dBFS with no timing reference
* Dated: May 5, 2023 12:20:55 PM
* REW Settings:
*  C-weighting compensation: Off
*  Target level: 75.0 dB
* Note: ; 
* Measurement: Customart Music 1 (custom) R
* Smoothing: 1/24 octave
* Frequency Step: 1/48 octave
* Start Frequency: 20.300 Hz
*
* Freq(Hz)	SPL(dB)	Phase(degrees)
20.299999	76.877	56.9194
20.600000	76.880	56.4781
20.900000	76.884	55.7031
21.200001	76.886	54.9985
21.400000	76.888	54.5580
21.799999	76.893	53.6826
22.000000	76.896	53.2284
22.400000	76.902	52.2937
22.700001	76.906	51.5839
23.000000	76.911	50.8779
23.299999	76.919	50.1855
23.600000	76.933	49.5093
24.000000	76.964	48.6292
24.299999	76.995	47.9789
24.700001	77.047	47.1194
25.000000	77.090	46.4824
25.400000	77.148	45.6541
25.799999	77.206	44.8684
26.200001	77.261	44.1432
26.500000	77.298	43.6458
26.900000	77.344	43.0473
27.200001	77.374	42.6445
27.600000	77.411	42.1613
28.000000	77.444	41.7259
28.500000	77.481	41.2234
29.000000	77.510	40.7406
29.500000	77.529	40.2608
30.000000	77.540	39.7791
30.400000	77.544	39.3932
30.700001	77.545	39.1032
31.100000	77.546	38.7121
31.500000	77.547	38.3077
32.000000	77.551	37.7678
32.500000	77.556	37.1807
33.000000	77.561	36.5600
33.500000	77.567	35.9357
34.000000	77.578	35.3350
34.500000	77.595	34.7634
35.000000	77.618	34.2118
35.500000	77.643	33.6769
36.000000	77.667	33.1692
36.500000	77.690	32.7009
37.000000	77.712	32.2723
37.500000	77.732	31.8734
38.200001	77.755	31.3519
38.700001	77.765	31.0046
39.500000	77.777	30.4786
40.000000	77.782	30.1528
40.599998	77.787	29.7592
41.200001	77.790	29.3673
41.799999	77.795	28.9736
42.500000	77.804	28.4987
43.099998	77.812	28.0820
43.700001	77.821	27.6744
44.400002	77.832	27.2238
45.000000	77.842	26.8604
45.500000	77.852	26.5732
46.200001	77.866	26.1898
46.799999	77.878	25.8682
47.500000	77.890	25.4949
48.200001	77.899	25.1314
48.700001	77.905	24.8813
49.400002	77.911	24.5422
50.000000	77.917	24.2591
50.799999	77.926	23.8842
51.500000	77.935	23.5455
52.200001	77.944	23.1984
53.000000	77.953	22.8127
53.799999	77.962	22.4435
54.500000	77.968	22.1267
55.200001	77.972	21.8239
56.000000	77.976	21.5080
57.000000	77.983	21.1401
58.000000	77.993	20.7667
59.000000	78.001	20.3893
60.000000	78.007	20.0259
60.799999	78.013	19.7453
61.500000	78.016	19.5080
62.200001	78.018	19.2834
63.000000	78.019	19.0442
64.000000	78.022	18.7542
65.000000	78.026	18.4479
66.000000	78.028	18.1306
67.000000	78.030	17.8166
68.000000	78.035	17.5055
69.000000	78.042	17.2142
70.000000	78.051	16.9509
71.000000	78.061	16.7137
72.000000	78.069	16.5032
73.000000	78.076	16.2982
74.000000	78.078	16.0894
75.000000	78.076	15.8850
76.199997	78.073	15.6240
77.500000	78.072	15.3082
78.800003	78.074	14.9894
80.000000	78.077	14.7160
81.199997	78.081	14.4830
82.500000	78.085	14.2661
83.800003	78.086	14.0677
85.000000	78.084	13.8723
86.199997	78.082	13.6540
87.500000	78.079	13.4112
88.500000	78.079	13.2350
90.000000	78.085	12.9864
91.199997	78.090	12.8037
92.500000	78.093	12.6200
93.800003	78.091	12.4461
95.000000	78.087	12.2934
96.199997	78.084	12.1370
97.500000	78.084	11.9545
98.800003	78.086	11.7709
100.000000	78.089	11.6089
101.500000	78.092	11.4281
103.000000	78.093	11.2615
104.400002	78.091	11.1035
106.000000	78.088	10.9236
107.500000	78.087	10.7537
109.000000	78.086	10.5911
110.599998	78.087	10.4303
112.000000	78.086	10.2997
113.800003	78.084	10.1391
115.000000	78.082	10.0331
117.199997	78.080	9.8379
118.000000	78.079	9.7663
120.599998	78.077	9.5360
122.000000	78.076	9.4170
124.099998	78.076	9.2531
125.000000	78.075	9.1871
126.500000	78.075	9.0808
128.000000	78.074	8.9761
131.500000	78.072	8.7047
132.000000	78.071	8.6666
134.000000	78.069	8.5246
136.000000	78.068	8.3940
138.000000	78.066	8.2715
140.000000	78.064	8.1565
143.000000	78.062	7.9865
145.000000	78.058	7.8752
147.500000	78.052	7.7668
150.000000	78.049	7.6555
152.500000	78.047	7.5288
155.000000	78.042	7.4051
157.500000	78.034	7.2889
160.000000	78.027	7.1769
162.500000	78.022	7.0741
165.000000	78.018	6.9820
167.500000	78.013	6.8847
170.000000	78.008	6.7805
172.500000	78.005	6.6892
175.000000	78.005	6.6150
177.500000	78.004	6.5445
180.000000	78.003	6.4644
182.500000	78.002	6.3775
185.000000	78.000	6.3005
187.500000	77.996	6.2395
190.000000	77.993	6.1869
192.500000	77.990	6.1290
195.000000	77.985	6.0671
197.500000	77.979	6.0102
200.000000	77.973	5.9583
203.000000	77.968	5.8982
206.000000	77.963	5.8489
209.000000	77.959	5.7997
212.000000	77.951	5.7399
214.000000	77.945	5.7017
218.000000	77.933	5.6395
220.000000	77.926	5.6130
224.000000	77.913	5.5592
227.000000	77.903	5.5138
230.000000	77.892	5.4828
233.000000	77.880	5.4638
236.000000	77.871	5.4381
240.000000	77.860	5.3986
243.000000	77.853	5.3768
247.000000	77.844	5.3465
250.000000	77.836	5.3251
254.000000	77.828	5.3045
258.000000	77.821	5.2844
262.000000	77.812	5.2626
265.000000	77.805	5.2564
269.000000	77.796	5.2548
272.000000	77.789	5.2509
276.000000	77.780	5.2443
280.000000	77.771	5.2490
285.000000	77.763	5.2552
290.000000	77.756	5.2459
295.000000	77.745	5.2468
300.000000	77.733	5.2631
304.000000	77.724	5.2767
307.000000	77.719	5.2858
311.000000	77.712	5.3026
315.000000	77.702	5.3241
320.000000	77.690	5.3568
325.000000	77.679	5.3824
330.000000	77.669	5.4134
335.000000	77.658	5.4533
340.000000	77.646	5.5036
345.000000	77.633	5.5608
350.000000	77.618	5.6118
355.000000	77.604	5.6649
360.000000	77.590	5.7140
365.000000	77.576	5.7716
370.000000	77.561	5.8390
375.000000	77.548	5.9069
382.000000	77.532	5.9857
387.000000	77.520	6.0425
395.000000	77.501	6.1495
400.000000	77.487	6.2307
406.000000	77.469	6.3408
412.000000	77.451	6.4465
418.000000	77.435	6.5579
425.000000	77.418	6.6938
431.000000	77.404	6.8019
437.000000	77.389	6.9139
444.000000	77.372	7.0503
450.000000	77.357	7.1708
455.000000	77.346	7.2798
462.000000	77.330	7.4410
468.000000	77.316	7.5834
475.000000	77.299	7.7554
482.000000	77.282	7.9167
487.000000	77.271	8.0318
494.000000	77.256	8.2041
500.000000	77.243	8.3609
508.000000	77.226	8.5771
515.000000	77.213	8.7756
522.000000	77.200	8.9735
530.000000	77.183	9.2058
538.000000	77.166	9.4439
545.000000	77.150	9.6465
552.000000	77.134	9.8618
560.000000	77.114	10.1179
570.000000	77.088	10.4510
580.000000	77.065	10.7922
590.000000	77.044	11.1247
600.000000	77.023	11.4686
608.000000	77.005	11.7624
615.000000	76.990	12.0312
622.000000	76.976	12.3005
630.000000	76.961	12.6064
640.000000	76.944	12.9939
650.000000	76.927	13.3892
660.000000	76.912	13.7961
670.000000	76.898	14.2226
680.000000	76.884	14.6562
690.000000	76.872	15.0985
700.000000	76.861	15.5442
710.000000	76.854	15.9845
720.000000	76.848	16.4419
730.000000	76.843	16.9157
740.000000	76.841	17.3866
750.000000	76.841	17.8666
762.000000	76.840	18.4444
775.000000	76.840	19.0818
788.000000	76.844	19.7349
800.000000	76.850	20.3393
812.000000	76.860	20.9554
825.000000	76.874	21.6319
838.000000	76.892	22.2964
850.000000	76.911	22.9087
862.000000	76.933	23.5242
875.000000	76.958	24.1861
885.000000	76.979	24.6920
900.000000	77.017	25.4441
912.000000	77.051	26.0312
925.000000	77.093	26.6451
938.000000	77.138	27.2456
950.000000	77.184	27.7898
962.000000	77.232	28.3154
975.000000	77.283	28.8706
988.000000	77.336	29.4030
1000.000000	77.389	29.8697
1015.000000	77.458	30.4248
1030.000000	77.529	30.9513
1044.000000	77.597	31.4050
1060.000000	77.675	31.8757
1075.000000	77.743	32.2681
1090.000000	77.803	32.6367
1106.000000	77.866	32.9939
1120.000000	77.920	33.2803
1138.000000	77.986	33.6166
1150.000000	78.028	33.8209
1172.000000	78.104	34.1899
1180.000000	78.130	34.3246
1206.000000	78.219	34.7513
1220.000000	78.273	34.9695
1241.000000	78.361	35.2889
1250.000000	78.399	35.4207
1265.000000	78.463	35.6366
1280.000000	78.526	35.8519
1315.000000	78.669	36.3367
1320.000000	78.689	36.4047
1340.000000	78.766	36.6747
1360.000000	78.845	36.9464
1380.000000	78.926	37.2252
1400.000000	79.010	37.5228
1430.000000	79.136	37.9835
1450.000000	79.221	38.2999
1475.000000	79.324	38.7063
1500.000000	79.427	39.1303
1525.000000	79.530	39.5697
1550.000000	79.624	40.0232
1575.000000	79.715	40.4848
1600.000000	79.809	40.9558
1625.000000	79.907	41.4313
1650.000000	80.009	41.9082
1675.000000	80.114	42.3895
1700.000000	80.226	42.8705
1725.000000	80.344	43.3521
1750.000000	80.468	43.8290
1775.000000	80.599	44.2976
1800.000000	80.735	44.7536
1825.000000	80.877	45.1992
1850.000000	81.025	45.6335
1875.000000	81.178	46.0535
1900.000000	81.336	46.4548
1925.000000	81.499	46.8337
1950.000000	81.668	47.1862
1975.000000	81.844	47.5167
2000.000000	82.027	47.8185
2030.000000	82.254	48.1341
2060.000000	82.492	48.3999
2090.000000	82.743	48.6044
2120.000000	83.006	48.7275
2140.000000	83.187	48.7548
2180.000000	83.559	48.6465
2200.000000	83.748	48.5031
2240.000000	84.130	48.0318
2270.000000	84.417	47.5160
2300.000000	84.703	46.8602
2330.000000	84.988	46.0613
2360.000000	85.271	45.1151
2400.000000	85.641	43.6042
2430.000000	85.911	42.2779
2470.000000	86.256	40.2394
2500.000000	86.499	38.5001
2540.000000	86.795	35.9062
2580.000000	87.051	33.0214
2620.000000	87.260	29.8886
2650.000000	87.382	27.4020
2690.000000	87.494	23.9433
2720.000000	87.539	21.2854
2760.000000	87.546	17.7225
2800.000000	87.492	14.1939
2850.000000	87.343	9.9399
2900.000000	87.111	5.9857
2950.000000	86.808	2.4342
3000.000000	86.448	-0.6299
3040.000000	86.129	-2.6903
3070.000000	85.880	-4.0013
3110.000000	85.538	-5.4461
3150.000000	85.195	-6.5612
3200.000000	84.770	-7.5427
3250.000000	84.360	-8.1357
3300.000000	83.967	-8.3961
3350.000000	83.592	-8.3642
3400.000000	83.236	-8.0783
3450.000000	82.902	-7.5665
3500.000000	82.591	-6.8575
3550.000000	82.303	-5.9774
3600.000000	82.040	-4.9489
3650.000000	81.800	-3.7997
3700.000000	81.585	-2.5464
3750.000000	81.395	-1.2014
3820.000000	81.170	0.8041
3870.000000	81.041	2.2984
3950.000000	80.887	4.7702
4000.000000	80.818	6.3613
4060.000000	80.764	8.3128
4120.000000	80.742	10.2998
4180.000000	80.752	12.3053
4250.000000	80.803	14.6464
4310.000000	80.884	16.6444
4370.000000	81.000	18.6206
4440.000000	81.180	20.8801
4500.000000	81.374	22.7549
4550.000000	81.564	24.2568
4620.000000	81.877	26.2430
4680.000000	82.190	27.8154
4750.000000	82.611	29.4498
4820.000000	83.093	30.7957
4870.000000	83.473	31.5334
4940.000000	84.057	32.1658
5000.000000	84.605	32.2467
5080.000000	85.402	31.5060
5150.000000	86.143	29.8335
5220.000000	86.893	26.9541
5300.000000	87.690	21.9119
5380.000000	88.317	14.8860
5450.000000	88.632	7.3454
5520.000000	88.664	-0.9005
5600.000000	88.341	-10.1264
5700.000000	87.490	-19.6927
5800.000000	86.346	-26.0747
5900.000000	85.120	-29.4518
6000.000000	83.947	-30.5507
6080.000000	83.091	-30.2634
6150.000000	82.415	-29.3784
6220.000000	81.809	-28.0246
6300.000000	81.205	-26.0262
6400.000000	80.585	-23.0216
6500.000000	80.118	-19.6377
6600.000000	79.808	-16.0671
6700.000000	79.652	-12.5076
6800.000000	79.649	-9.1464
6900.000000	79.791	-6.1413
7000.000000	80.070	-3.6206
7100.000000	80.475	-1.7217
7200.000000	81.000	-0.6015
7300.000000	81.644	-0.4864
7400.000000	82.397	-1.7596
7500.000000	83.212	-4.9829
7620.000000	84.107	-12.3139
7750.000000	84.601	-24.8708
7880.000000	84.224	-39.9559
8000.000000	83.052	-52.2177
8120.000000	81.337	-60.3996
8250.000000	79.257	-64.6316
8380.000000	77.239	-65.3332
8500.000000	75.538	-63.9128
8620.000000	74.013	-61.1856
8750.000000	72.550	-57.2216
8850.000000	71.550	-53.6739
9000.000000	70.236	-47.8087
9120.000000	69.325	-42.8030
9250.000000	68.463	-37.1556
9380.000000	67.718	-31.3145
9500.000000	67.125	-25.8130
9620.000000	66.626	-20.2886
9750.000000	66.186	-14.2803
9880.000000	65.844	-8.2428
10000.000000	65.611	-2.6675
10150.000000	65.430	4.2716
10300.000000	65.376	11.1129
10440.000000	65.446	17.3449
10600.000000	65.675	24.2201
10750.000000	66.047	30.3447
10900.000000	66.586	36.0147
11060.000000	67.371	41.2616
11200.000000	68.261	44.8566
11380.000000	69.692	47.2785
11500.000000	70.774	46.6997
11720.000000	72.608	38.7280
11800.000000	73.055	33.3620
12060.000000	73.004	11.6809
12200.000000	72.032	2.2035
12410.000000	69.930	-4.9038
12500.000000	68.975	-5.6092
12650.000000	67.477	-4.5320
12800.000000	66.182	-1.4843
13150.000000	64.037	9.5702
13200.000000	63.823	11.4020
13400.000000	63.175	19.0510
13600.000000	62.859	27.0056
13800.000000	62.903	35.0031
14000.000000	63.301	42.7714
14300.000000	64.533	53.4582
14500.000000	65.861	59.5169
14750.000000	68.273	64.5381
15000.000000	71.516	63.7429
15250.000000	74.931	51.6705
15500.000000	77.223	23.4432
15750.000000	77.432	-16.2299
16000.000000	75.378	-54.4043
16250.000000	71.351	-79.8241
16500.000000	66.047	-89.4110
16750.000000	60.419	-87.3932
17000.000000	55.224	-78.6201
17250.000000	50.737	-65.7875
17500.000000	46.891	-50.2478
17750.000000	43.594	-33.1874
18000.000000	40.787	-15.1045
18250.000000	38.416	-1.5155
18500.000000	36.391	-37.9277
18750.000000	34.885	32.9891
19000.000000	33.900	-116.8899
19250.000000	33.359	-162.8750
19500.000000	33.427	22.2852
19750.000000	33.885	110.0122
20000.000000	34.236	-80.4688
