* Measurement data measured by REW V5.20.13
* Source: EXCL: Mic in at rear panel (Pink)(Realtek(R) Audio), MICROPHONE (마스), L, volume: 0.500
* Format: 256k Log Swept Sine, 1 sweep at -12.0 dBFS with no timing reference
* Dated: 2022. 9. 27 오후 1:43:22
* REW Settings:
*  C-weighting compensation: Off
*  Target level: 75.0 dB
* Note: 
* Measurement: L
* Smoothing: 1/24 octave
* Frequency Step: 1/48 octave
* Start Frequency: 20.300 Hz
*
* Freq(Hz)	SPL(dB)	Phase(degrees)
20.299999	83.245	-156.9614
20.600000	83.257	-157.3750
20.900000	83.277	-158.1121
21.200001	83.285	-158.8068
21.400000	83.284	-159.2425
21.799999	83.272	-160.0769
22.000000	83.264	-160.4829
22.400000	83.248	-161.2680
22.700001	83.241	-161.8484
23.000000	83.239	-162.4496
23.299999	83.240	-163.0878
23.600000	83.242	-163.7616
24.000000	83.241	-164.6873
24.299999	83.237	-165.3626
24.700001	83.232	-166.1931
25.000000	83.232	-166.7565
25.400000	83.245	-167.4579
25.799999	83.269	-168.1614
26.200001	83.296	-168.9020
26.500000	83.312	-169.4690
26.900000	83.322	-170.1986
27.200001	83.325	-170.7003
27.600000	83.327	-171.3068
28.000000	83.335	-171.8878
28.500000	83.348	-172.6662
29.000000	83.346	-173.5196
29.500000	83.322	-174.3587
30.000000	83.286	-175.0933
30.400000	83.261	-175.6131
30.700001	83.246	-175.9909
31.100000	83.232	-176.5107
31.500000	83.218	-177.0574
32.000000	83.200	-177.7603
32.500000	83.182	-178.4663
33.000000	83.167	-179.1839
33.500000	83.151	-179.9173
34.000000	83.130	179.3675
34.500000	83.104	178.7160
35.000000	83.079	178.1354
35.500000	83.059	177.5907
36.000000	83.043	177.0439
36.500000	83.027	176.4818
37.000000	83.007	175.9060
37.500000	82.982	175.3193
38.200001	82.937	174.4874
38.700001	82.897	173.8997
39.500000	82.828	172.9905
40.000000	82.786	172.4348
40.599998	82.736	171.7704
41.200001	82.688	171.1082
41.799999	82.640	170.4570
42.500000	82.586	169.7285
43.099998	82.542	169.1399
43.700001	82.499	168.5815
44.400002	82.446	167.9728
45.000000	82.397	167.5040
45.500000	82.357	167.1510
46.200001	82.302	166.6861
46.799999	82.254	166.2974
47.500000	82.200	165.8672
48.200001	82.152	165.4470
48.700001	82.123	165.1167
49.400002	82.082	164.5936
50.000000	82.040	164.1401
50.799999	81.984	163.6108
51.500000	81.948	163.1871
52.200001	81.920	162.7312
53.000000	81.886	162.1781
53.799999	81.847	161.6443
54.500000	81.811	161.1873
55.200001	81.770	160.7151
56.000000	81.712	160.1740
57.000000	81.630	159.5561
58.000000	81.552	158.9473
59.000000	81.473	158.2360
60.000000	81.371	157.4572
60.799999	81.274	156.9241
61.500000	81.192	156.5741
62.200001	81.119	156.2611
63.000000	81.028	155.9650
64.000000	80.925	155.9853
65.000000	80.911	156.0640
66.000000	80.904	155.6590
67.000000	80.853	155.3207
68.000000	80.827	155.0168
69.000000	80.784	154.4804
70.000000	80.713	154.0185
71.000000	80.651	153.5808
72.000000	80.584	153.0306
73.000000	80.504	152.4940
74.000000	80.430	152.0293
75.000000	80.370	151.5519
76.199997	80.310	150.8890
77.500000	80.232	150.0805
78.800003	80.136	149.3650
80.000000	80.033	148.8428
81.199997	79.940	148.5002
82.500000	79.853	148.0784
83.800003	79.758	147.6286
85.000000	79.664	147.1903
86.199997	79.563	146.7997
87.500000	79.458	146.4529
88.500000	79.387	146.1942
90.000000	79.276	145.7543
91.199997	79.178	145.4912
92.500000	79.080	145.2499
93.800003	78.978	144.9586
95.000000	78.872	144.6866
96.199997	78.761	144.4418
97.500000	78.643	144.2375
98.800003	78.544	144.0381
100.000000	78.458	143.8128
101.500000	78.348	143.5832
103.000000	78.234	143.4209
104.400002	78.123	143.3420
106.000000	78.004	143.2132
107.500000	77.888	142.9836
109.000000	77.775	142.8271
110.599998	77.677	142.7247
112.000000	77.593	142.6637
113.800003	77.464	142.6173
115.000000	77.363	142.5764
117.199997	77.169	142.2278
118.000000	77.089	141.9977
120.599998	76.840	142.0774
122.000000	76.823	142.3859
124.099998	76.802	142.4541
125.000000	76.766	142.4973
126.500000	76.682	142.6230
128.000000	76.579	142.7438
131.500000	76.348	142.8713
132.000000	76.320	142.8906
134.000000	76.219	143.0159
136.000000	76.123	143.1683
138.000000	76.023	143.3566
140.000000	75.933	143.5442
143.000000	75.822	143.7386
145.000000	75.756	143.8479
147.500000	75.666	143.8807
150.000000	75.560	143.8740
152.500000	75.452	143.8553
155.000000	75.336	143.9081
157.500000	75.211	144.0406
160.000000	75.083	144.1583
162.500000	74.960	144.2698
165.000000	74.851	144.5009
167.500000	74.756	144.8250
170.000000	74.666	145.0697
172.500000	74.564	145.2128
175.000000	74.451	145.4220
177.500000	74.343	145.7239
180.000000	74.244	146.0439
182.500000	74.159	146.3438
185.000000	74.081	146.6317
187.500000	74.000	146.9241
190.000000	73.910	147.2115
192.500000	73.816	147.5178
195.000000	73.729	147.8658
197.500000	73.652	148.2437
200.000000	73.579	148.6138
203.000000	73.494	148.9938
206.000000	73.411	149.3311
209.000000	73.330	149.7018
212.000000	73.250	150.1450
214.000000	73.198	150.4412
218.000000	73.097	150.9736
220.000000	73.050	151.2507
224.000000	72.961	151.8693
227.000000	72.891	152.3463
230.000000	72.824	152.7446
233.000000	72.760	153.0455
236.000000	72.698	153.3418
240.000000	72.624	153.8362
243.000000	72.578	154.2281
247.000000	72.516	154.7866
250.000000	72.464	155.2416
254.000000	72.388	155.7979
258.000000	72.316	156.3217
262.000000	72.253	156.8656
265.000000	72.212	157.2680
269.000000	72.145	157.7591
272.000000	72.093	158.1214
276.000000	72.046	158.5887
280.000000	72.004	159.0512
285.000000	71.943	159.7037
290.000000	71.890	160.3893
295.000000	71.841	160.9670
300.000000	71.809	161.5804
304.000000	71.785	162.0775
307.000000	71.758	162.4235
311.000000	71.716	162.8591
315.000000	71.679	163.2656
320.000000	71.638	163.8010
325.000000	71.596	164.3675
330.000000	71.561	164.9132
335.000000	71.537	165.4799
340.000000	71.509	165.9926
345.000000	71.473	166.4845
350.000000	71.438	166.9888
355.000000	71.407	167.4555
360.000000	71.376	167.9522
365.000000	71.342	168.4692
370.000000	71.303	168.9878
375.000000	71.272	169.4694
382.000000	71.237	170.1441
387.000000	71.209	170.6436
395.000000	71.168	171.4570
400.000000	71.140	171.9559
406.000000	71.109	172.4443
412.000000	71.079	172.9128
418.000000	71.052	173.4390
425.000000	71.018	174.0065
431.000000	70.987	174.4933
437.000000	70.957	175.0457
444.000000	70.931	175.6171
450.000000	70.912	176.0816
455.000000	70.897	176.5332
462.000000	70.881	177.1754
468.000000	70.866	177.6685
475.000000	70.837	178.2409
482.000000	70.811	178.8116
487.000000	70.797	179.2148
494.000000	70.778	179.8010
500.000000	70.763	-179.7188
508.000000	70.739	-179.0568
515.000000	70.728	-178.4866
522.000000	70.720	-177.9170
530.000000	70.702	-177.2738
538.000000	70.681	-176.6274
545.000000	70.669	-176.0669
552.000000	70.659	-175.5089
560.000000	70.637	-174.8577
570.000000	70.610	-174.0631
580.000000	70.596	-173.2802
590.000000	70.585	-172.4601
600.000000	70.565	-171.5979
608.000000	70.556	-170.9327
615.000000	70.554	-170.3527
622.000000	70.549	-169.7739
630.000000	70.539	-169.1041
640.000000	70.528	-168.2411
650.000000	70.519	-167.3918
660.000000	70.510	-166.5450
670.000000	70.503	-165.6848
680.000000	70.502	-164.8928
690.000000	70.501	-163.9784
700.000000	70.511	-163.0309
710.000000	70.518	-162.1603
720.000000	70.526	-161.2993
730.000000	70.549	-160.4092
740.000000	70.579	-159.4929
750.000000	70.610	-158.5765
762.000000	70.648	-157.5615
775.000000	70.703	-156.4493
788.000000	70.761	-155.3799
800.000000	70.819	-154.4602
812.000000	70.877	-153.6082
825.000000	70.942	-152.7135
838.000000	71.000	-151.7824
850.000000	71.054	-150.9393
862.000000	71.119	-150.1251
875.000000	71.186	-149.2660
885.000000	71.234	-148.6349
900.000000	71.314	-147.7166
912.000000	71.383	-146.9602
925.000000	71.459	-146.1460
938.000000	71.532	-145.3342
950.000000	71.604	-144.5950
962.000000	71.682	-143.8521
975.000000	71.772	-143.1118
988.000000	71.866	-142.4842
1000.000000	71.951	-141.8897
1015.000000	72.057	-141.0034
1030.000000	72.166	-140.1744
1044.000000	72.272	-139.5280
1060.000000	72.398	-138.8398
1075.000000	72.518	-138.2065
1090.000000	72.643	-137.6426
1106.000000	72.781	-137.0773
1120.000000	72.901	-136.6009
1138.000000	73.051	-136.0565
1150.000000	73.150	-135.6938
1172.000000	73.329	-135.0392
1180.000000	73.394	-134.8183
1206.000000	73.608	-134.1479
1220.000000	73.721	-133.8319
1241.000000	73.891	-133.3788
1250.000000	73.965	-133.1931
1265.000000	74.089	-132.8813
1280.000000	74.208	-132.5922
1315.000000	74.473	-131.9687
1320.000000	74.510	-131.8826
1340.000000	74.658	-131.5627
1360.000000	74.800	-131.2669
1380.000000	74.944	-130.9776
1400.000000	75.092	-130.7193
1430.000000	75.316	-130.3179
1450.000000	75.462	-130.0572
1475.000000	75.647	-129.7698
1500.000000	75.830	-129.5029
1525.000000	76.007	-129.2473
1550.000000	76.182	-128.9824
1575.000000	76.351	-128.6787
1600.000000	76.524	-128.2843
1625.000000	76.715	-127.7976
1650.000000	76.940	-127.2686
1675.000000	77.216	-126.8534
1700.000000	77.517	-126.7889
1725.000000	77.804	-127.0818
1750.000000	78.057	-127.5581
1775.000000	78.283	-128.1063
1800.000000	78.493	-128.7008
1825.000000	78.696	-129.3139
1850.000000	78.892	-129.9391
1875.000000	79.084	-130.5960
1900.000000	79.271	-131.3149
1925.000000	79.451	-132.1062
1950.000000	79.624	-132.9740
1975.000000	79.787	-133.9114
2000.000000	79.938	-134.8977
2030.000000	80.106	-136.1325
2060.000000	80.257	-137.4422
2090.000000	80.384	-138.8329
2120.000000	80.489	-140.2519
2140.000000	80.546	-141.2023
2180.000000	80.630	-143.0892
2200.000000	80.658	-144.0055
2240.000000	80.692	-145.7854
2270.000000	80.699	-147.0828
2300.000000	80.688	-148.3309
2330.000000	80.660	-149.5122
2360.000000	80.617	-150.6127
2400.000000	80.546	-151.9331
2430.000000	80.487	-152.8350
2470.000000	80.400	-153.9462
2500.000000	80.323	-154.7024
2540.000000	80.210	-155.5777
2580.000000	80.092	-156.2998
2620.000000	79.976	-156.9159
2650.000000	79.888	-157.3169
2690.000000	79.765	-157.7546
2720.000000	79.672	-158.0017
2760.000000	79.549	-158.2591
2800.000000	79.423	-158.4631
2850.000000	79.252	-158.6041
2900.000000	79.066	-158.5002
2950.000000	78.881	-157.9699
3000.000000	78.732	-156.9759
3040.000000	78.667	-155.9539
3070.000000	78.660	-155.1696
3110.000000	78.699	-154.2520
3150.000000	78.776	-153.6161
3200.000000	78.882	-153.2745
3250.000000	78.958	-153.2940
3300.000000	78.983	-153.4420
3350.000000	78.962	-153.5053
3400.000000	78.919	-153.2950
3450.000000	78.892	-152.7520
3500.000000	78.913	-152.0378
3550.000000	78.981	-151.3615
3600.000000	79.076	-150.8314
3650.000000	79.181	-150.4550
3700.000000	79.293	-150.2026
3750.000000	79.404	-150.0536
3820.000000	79.557	-149.9924
3870.000000	79.657	-150.0396
3950.000000	79.803	-150.2516
4000.000000	79.890	-150.4333
4060.000000	79.990	-150.6941
4120.000000	80.084	-150.9834
4180.000000	80.174	-151.2784
4250.000000	80.287	-151.6237
4310.000000	80.388	-151.9640
4370.000000	80.491	-152.4141
4440.000000	80.612	-153.1687
4500.000000	80.710	-154.0806
4550.000000	80.779	-155.0350
4620.000000	80.839	-156.6154
4680.000000	80.843	-158.1244
4750.000000	80.782	-159.9770
4820.000000	80.645	-161.7987
4870.000000	80.501	-162.9769
4940.000000	80.244	-164.3354
5000.000000	79.986	-165.1718
5080.000000	79.612	-165.7264
5150.000000	79.281	-165.6970
5220.000000	78.961	-165.2369
5300.000000	78.630	-164.2560
5380.000000	78.345	-162.8999
5450.000000	78.140	-161.4688
5520.000000	77.982	-159.8619
5600.000000	77.869	-157.9218
5700.000000	77.819	-155.6412
5800.000000	77.819	-153.6849
5900.000000	77.836	-151.8717
6000.000000	77.880	-150.0862
6080.000000	77.938	-148.6832
6150.000000	78.003	-147.4823
6220.000000	78.084	-146.3017
6300.000000	78.193	-144.9727
6400.000000	78.357	-143.3312
6500.000000	78.556	-141.7042
6600.000000	78.793	-140.1089
6700.000000	79.074	-138.5536
6800.000000	79.413	-137.0562
6900.000000	79.831	-135.6507
7000.000000	80.338	-134.3924
7100.000000	80.934	-133.3474
7200.000000	81.628	-132.6568
7300.000000	82.422	-132.5474
7400.000000	83.309	-133.2657
7500.000000	84.276	-135.0549
7620.000000	85.525	-139.0306
7750.000000	86.854	-146.4019
7880.000000	87.839	-157.6560
8000.000000	88.197	-170.8996
8120.000000	87.877	175.2280
8250.000000	86.826	162.6041
8380.000000	85.342	154.1487
8500.000000	83.874	149.7381
8620.000000	82.471	147.7057
8750.000000	81.091	147.3631
8850.000000	80.146	147.9944
9000.000000	78.917	149.8718
9120.000000	78.077	151.9034
9250.000000	77.293	154.4664
9380.000000	76.626	157.3211
9500.000000	76.105	160.1581
9620.000000	75.682	163.1108
9750.000000	75.334	166.3289
9880.000000	75.088	169.4944
10000.000000	74.946	172.3137
10150.000000	74.883	175.6223
10300.000000	74.948	178.5466
10440.000000	75.124	-179.2725
10600.000000	75.448	-177.6724
10750.000000	75.833	-177.3372
10900.000000	76.242	-178.4583
11060.000000	76.608	178.4977
11200.000000	76.763	174.3412
11380.000000	76.595	167.7704
11500.000000	76.219	163.4419
11720.000000	75.054	157.6518
11800.000000	74.529	156.5461
12060.000000	72.740	156.7792
12200.000000	71.857	158.9576
12410.000000	70.767	163.9848
12500.000000	70.408	166.5245
12650.000000	69.974	170.9671
12800.000000	69.741	175.3900
13150.000000	69.891	-176.0376
13200.000000	69.979	-175.1575
13400.000000	70.436	-172.8689
13600.000000	70.976	-172.8583
13800.000000	71.450	-175.3215
14000.000000	71.693	-179.9065
14300.000000	71.384	171.6785
14500.000000	70.755	166.9989
14750.000000	69.691	163.5113
15000.000000	68.553	162.6414
15250.000000	67.535	163.7574
15500.000000	66.773	166.0561
15750.000000	66.313	168.9598
16000.000000	66.133	171.9982
16250.000000	66.251	174.5265
16500.000000	66.644	175.6231
16750.000000	67.229	174.5448
17000.000000	67.920	170.4064
17250.000000	68.514	161.9675
17500.000000	68.630	148.9863
17750.000000	67.887	134.0755
18000.000000	66.194	121.9944
18250.000000	63.844	116.0156
18500.000000	61.351	115.9407
18750.000000	59.153	119.4340
19000.000000	57.408	124.0867
19250.000000	56.029	128.7218
19500.000000	54.821	133.2130
19750.000000	53.728	137.4018
20000.000000	52.971	140.2328
