* Measurement data measured by REW V5.20.5
* Source: ??? (Realtek(R) Audio), MICROPHONE (Master Volume), L, volume: 1.000
* Format: 128k Log Swept Sine, 2 sweeps at -12.0 dBFS with no timing reference
* Dated: 25-May-2022 00:50:47
* REW Settings:
*  C-weighting compensation: Off
*  Target level: 75.0 dB
* Note: ; 
* Measurement: NNN N5005 9k L
* Smoothing: 1/24 octave
* Frequency Step: 1/48 octave
* Start Frequency: 20.300 Hz
*
* Freq(Hz)	SPL(dB)	Phase(degrees)
20.299999	98.494	-153.8002
20.600000	98.500	-154.1443
20.900000	98.511	-154.7466
21.200001	98.521	-155.2888
21.400000	98.529	-155.6274
21.799999	98.547	-156.3138
22.000000	98.556	-156.6848
22.400000	98.573	-157.4923
22.700001	98.580	-158.1448
23.000000	98.580	-158.8159
23.299999	98.574	-159.4763
23.600000	98.565	-160.1065
24.000000	98.557	-160.8886
24.299999	98.557	-161.4431
24.700001	98.567	-162.1706
25.000000	98.578	-162.7252
25.400000	98.593	-163.4798
25.799999	98.605	-164.2290
26.200001	98.613	-164.9431
26.500000	98.617	-165.4480
26.900000	98.619	-166.0860
27.200001	98.620	-166.5477
27.600000	98.619	-167.1506
28.000000	98.615	-167.7398
28.500000	98.608	-168.4562
29.000000	98.599	-169.1693
29.500000	98.588	-169.9104
30.000000	98.569	-170.6777
30.400000	98.547	-171.2785
30.700001	98.528	-171.7052
31.100000	98.506	-172.2419
31.500000	98.488	-172.7648
32.000000	98.472	-173.4451
32.500000	98.456	-174.1637
33.000000	98.435	-174.8702
33.500000	98.418	-175.5252
34.000000	98.412	-176.1564
34.500000	98.413	-176.8199
35.000000	98.409	-177.5158
35.500000	98.396	-178.1804
36.000000	98.379	-178.7680
36.500000	98.369	-179.3088
37.000000	98.363	-179.8706
37.500000	98.351	179.5250
38.200001	98.316	178.6941
38.700001	98.282	178.1740
39.500000	98.236	177.4352
40.000000	98.215	176.9654
40.599998	98.191	176.3576
41.200001	98.164	175.7202
41.799999	98.133	175.0906
42.500000	98.099	174.3798
43.099998	98.075	173.7555
43.700001	98.050	173.0847
44.400002	98.006	172.2747
45.000000	97.951	171.6499
45.500000	97.902	171.2482
46.200001	97.850	170.8659
46.799999	97.839	170.5603
47.500000	97.850	169.9803
48.200001	97.844	169.1368
48.700001	97.812	168.5100
49.400002	97.744	167.7988
50.000000	97.690	167.3593
50.799999	97.643	166.8127
51.500000	97.608	166.2102
52.200001	97.555	165.5400
53.000000	97.473	164.8729
53.799999	97.390	164.3612
54.500000	97.328	163.9698
55.200001	97.276	163.5837
56.000000	97.231	163.1162
57.000000	97.196	162.4022
58.000000	97.154	161.4248
59.000000	97.052	160.4842
60.000000	96.941	160.1174
60.799999	96.908	159.9908
61.500000	96.897	159.7221
62.200001	96.872	159.3593
63.000000	96.829	158.9832
64.000000	96.776	158.4582
65.000000	96.697	157.7681
66.000000	96.593	157.1478
67.000000	96.503	156.5643
68.000000	96.431	155.9362
69.000000	96.376	155.2953
70.000000	96.324	154.6458
71.000000	96.261	154.2071
72.000000	96.212	153.9931
73.000000	96.167	153.7587
74.000000	96.096	153.4650
75.000000	95.998	153.1237
76.199997	95.864	152.7076
77.500000	95.768	152.1689
78.800003	95.745	151.2167
80.000000	95.708	150.2404
81.199997	95.665	150.0823
82.500000	95.767	151.0266
83.800003	96.073	150.7639
85.000000	95.992	148.6196
86.199997	95.540	148.2656
87.500000	95.174	149.1646
88.500000	94.983	149.4148
90.000000	94.722	149.3673
91.199997	94.622	149.4063
92.500000	94.627	148.6650
93.800003	94.562	147.5224
95.000000	94.449	146.9211
96.199997	94.349	146.8177
97.500000	94.294	146.8306
98.800003	94.258	146.6399
100.000000	94.214	146.3006
101.500000	94.121	145.8382
103.000000	94.010	145.5040
104.400002	93.903	145.1516
106.000000	93.769	144.7551
107.500000	93.657	144.4017
109.000000	93.555	144.0712
110.599998	93.454	143.8331
112.000000	93.370	143.7134
113.800003	93.259	143.6045
115.000000	93.179	143.5215
117.199997	93.020	143.3455
118.000000	92.960	143.3088
120.599998	92.798	143.2017
122.000000	92.716	143.0460
124.099998	92.582	142.8242
125.000000	92.523	142.7486
126.500000	92.425	142.6542
128.000000	92.331	142.5513
131.500000	92.107	142.3639
132.000000	92.078	142.3520
134.000000	91.963	142.3250
136.000000	91.842	142.3744
138.000000	91.715	142.4991
140.000000	91.594	142.6031
143.000000	91.424	142.6187
145.000000	91.311	142.6497
147.500000	91.159	142.9066
150.000000	91.026	143.2382
152.500000	90.884	143.3624
155.000000	90.728	143.5565
157.500000	90.589	143.7109
160.000000	90.445	143.8184
162.500000	90.303	144.0718
165.000000	90.179	144.6369
167.500000	90.079	145.2823
170.000000	89.976	145.7277
172.500000	89.851	146.1190
175.000000	89.745	146.6370
177.500000	89.655	147.1047
180.000000	89.573	147.5803
182.500000	89.537	148.1986
185.000000	89.568	148.7020
187.500000	89.586	148.9014
190.000000	89.571	148.9772
192.500000	89.533	148.9918
195.000000	89.476	149.0693
197.500000	89.405	149.1622
200.000000	89.326	149.2319
203.000000	89.237	149.3188
206.000000	89.142	149.5378
209.000000	89.035	149.8722
212.000000	88.943	150.1655
214.000000	88.891	150.2934
218.000000	88.777	150.5978
220.000000	88.722	150.8097
224.000000	88.608	151.2873
227.000000	88.520	151.7016
230.000000	88.439	152.0681
233.000000	88.372	152.4583
236.000000	88.321	152.8671
240.000000	88.245	153.3028
243.000000	88.182	153.6042
247.000000	88.095	154.0995
250.000000	88.015	154.5106
254.000000	87.931	155.0523
258.000000	87.892	155.3968
262.000000	87.835	155.7519
265.000000	87.788	156.1065
269.000000	87.739	156.6049
272.000000	87.699	156.9402
276.000000	87.626	157.4209
280.000000	87.563	157.9481
285.000000	87.507	158.5839
290.000000	87.440	159.2229
295.000000	87.376	159.8047
300.000000	87.314	160.3556
304.000000	87.280	160.6994
307.000000	87.257	160.9675
311.000000	87.223	161.4040
315.000000	87.187	161.8457
320.000000	87.139	162.3687
325.000000	87.094	162.8797
330.000000	87.049	163.4085
335.000000	87.009	163.9170
340.000000	86.967	164.3998
345.000000	86.925	164.8899
350.000000	86.888	165.3709
355.000000	86.856	165.8560
360.000000	86.825	166.3341
365.000000	86.787	166.8349
370.000000	86.752	167.3137
375.000000	86.721	167.7303
382.000000	86.683	168.3300
387.000000	86.654	168.7734
395.000000	86.616	169.4491
400.000000	86.591	169.8630
406.000000	86.558	170.3712
412.000000	86.531	170.8779
418.000000	86.503	171.3719
425.000000	86.469	171.9008
431.000000	86.441	172.4066
437.000000	86.416	172.9395
444.000000	86.393	173.5399
450.000000	86.380	174.0398
455.000000	86.368	174.4012
462.000000	86.343	174.9027
468.000000	86.320	175.3608
475.000000	86.292	175.9063
482.000000	86.267	176.4806
487.000000	86.253	176.8859
494.000000	86.234	177.4174
500.000000	86.213	177.8535
508.000000	86.187	178.4323
515.000000	86.164	178.9568
522.000000	86.146	179.4770
530.000000	86.132	-179.9053
538.000000	86.122	-179.2503
545.000000	86.114	-178.7202
552.000000	86.100	-178.2019
560.000000	86.075	-177.6055
570.000000	86.049	-176.8573
580.000000	86.029	-176.0607
590.000000	86.009	-175.2970
600.000000	85.992	-174.5485
608.000000	85.978	-173.8896
615.000000	85.964	-173.3329
622.000000	85.950	-172.8053
630.000000	85.938	-172.1944
640.000000	85.929	-171.3727
650.000000	85.918	-170.5000
660.000000	85.912	-169.6481
670.000000	85.921	-168.8062
680.000000	85.934	-167.9504
690.000000	85.941	-167.1084
700.000000	85.946	-166.2676
710.000000	85.961	-165.3887
720.000000	85.984	-164.5195
730.000000	86.017	-163.6994
740.000000	86.058	-162.9141
750.000000	86.099	-162.1343
762.000000	86.148	-161.1948
775.000000	86.211	-160.2308
788.000000	86.269	-159.3870
800.000000	86.321	-158.6263
812.000000	86.373	-157.8359
825.000000	86.416	-156.9649
838.000000	86.463	-156.1112
850.000000	86.515	-155.3607
862.000000	86.561	-154.5966
875.000000	86.614	-153.7543
885.000000	86.659	-153.0961
900.000000	86.729	-152.1410
912.000000	86.788	-151.4018
925.000000	86.852	-150.5734
938.000000	86.921	-149.7739
950.000000	86.991	-149.0477
962.000000	87.063	-148.3148
975.000000	87.147	-147.5337
988.000000	87.234	-146.7601
1000.000000	87.316	-146.0621
1015.000000	87.425	-145.2515
1030.000000	87.539	-144.5200
1044.000000	87.647	-143.8719
1060.000000	87.772	-143.1544
1075.000000	87.887	-142.5159
1090.000000	87.995	-141.9241
1106.000000	88.113	-141.3296
1120.000000	88.216	-140.8342
1138.000000	88.347	-140.2476
1150.000000	88.438	-139.8948
1172.000000	88.606	-139.3308
1180.000000	88.665	-139.1375
1206.000000	88.859	-138.5290
1220.000000	88.967	-138.2229
1241.000000	89.139	-137.8023
1250.000000	89.214	-137.6409
1265.000000	89.339	-137.3894
1280.000000	89.464	-137.1435
1315.000000	89.746	-136.5963
1320.000000	89.786	-136.5257
1340.000000	89.945	-136.2648
1360.000000	90.106	-136.0196
1380.000000	90.271	-135.7887
1400.000000	90.436	-135.5860
1430.000000	90.685	-135.2928
1450.000000	90.849	-135.1168
1475.000000	91.054	-134.9233
1500.000000	91.259	-134.7356
1525.000000	91.457	-134.5600
1550.000000	91.651	-134.4264
1575.000000	91.840	-134.3142
1600.000000	92.027	-134.2499
1625.000000	92.218	-134.2213
1650.000000	92.411	-134.2069
1675.000000	92.606	-134.2379
1700.000000	92.801	-134.3252
1725.000000	92.999	-134.4420
1750.000000	93.203	-134.6063
1775.000000	93.408	-134.8370
1800.000000	93.612	-135.1286
1825.000000	93.817	-135.4822
1850.000000	94.022	-135.8898
1875.000000	94.225	-136.3361
1900.000000	94.425	-136.8664
1925.000000	94.620	-137.4855
1950.000000	94.809	-138.1673
1975.000000	94.994	-138.9139
2000.000000	95.172	-139.7409
2030.000000	95.375	-140.8191
2060.000000	95.565	-141.9629
2090.000000	95.740	-143.1714
2120.000000	95.898	-144.4588
2140.000000	95.993	-145.3615
2180.000000	96.160	-147.2351
2200.000000	96.231	-148.1868
2240.000000	96.344	-150.1100
2270.000000	96.407	-151.5577
2300.000000	96.450	-152.9946
2330.000000	96.474	-154.4057
2360.000000	96.482	-155.7733
2400.000000	96.467	-157.5145
2430.000000	96.439	-158.7473
2470.000000	96.383	-160.2764
2500.000000	96.329	-161.3337
2540.000000	96.242	-162.6393
2580.000000	96.139	-163.8240
2620.000000	96.019	-164.8539
2650.000000	95.920	-165.5041
2690.000000	95.781	-166.1956
2720.000000	95.675	-166.5755
2760.000000	95.540	-166.8967
2800.000000	95.418	-167.0468
2850.000000	95.284	-167.0731
2900.000000	95.166	-166.9544
2950.000000	95.067	-166.6074
3000.000000	95.006	-166.0370
3040.000000	94.997	-165.5082
3070.000000	95.015	-165.1290
3110.000000	95.069	-164.7042
3150.000000	95.148	-164.4357
3200.000000	95.263	-164.3776
3250.000000	95.374	-164.6367
3300.000000	95.465	-165.1124
3350.000000	95.527	-165.6909
3400.000000	95.562	-166.2847
3450.000000	95.577	-166.8379
3500.000000	95.578	-167.3161
3550.000000	95.573	-167.6941
3600.000000	95.572	-167.9990
3650.000000	95.575	-168.2721
3700.000000	95.586	-168.5291
3750.000000	95.602	-168.7777
3820.000000	95.634	-169.1366
3870.000000	95.664	-169.4359
3950.000000	95.723	-169.9783
4000.000000	95.763	-170.3472
4060.000000	95.813	-170.8186
4120.000000	95.863	-171.3353
4180.000000	95.914	-171.8862
4250.000000	95.978	-172.5613
4310.000000	96.037	-173.2025
4370.000000	96.098	-173.9417
4440.000000	96.173	-174.9650
4500.000000	96.234	-176.0120
4550.000000	96.276	-177.0279
4620.000000	96.308	-178.6931
4680.000000	96.296	179.6778
4750.000000	96.221	177.6567
4820.000000	96.070	175.6646
4870.000000	95.914	174.3473
4940.000000	95.638	172.7437
5000.000000	95.363	171.6587
5080.000000	94.962	170.6931
5150.000000	94.593	170.3014
5220.000000	94.225	170.3080
5300.000000	93.820	170.7695
5380.000000	93.444	171.6644
5450.000000	93.144	172.7457
5520.000000	92.880	174.0421
5600.000000	92.632	175.6854
5700.000000	92.411	177.7119
5800.000000	92.243	179.4416
5900.000000	92.086	-178.9828
6000.000000	91.939	-177.3765
6080.000000	91.834	-176.0628
6150.000000	91.753	-174.9037
6220.000000	91.681	-173.7462
6300.000000	91.606	-172.4100
6400.000000	91.524	-170.6794
6500.000000	91.460	-168.8870
6600.000000	91.415	-167.0267
6700.000000	91.396	-165.0805
6800.000000	91.410	-163.0775
6900.000000	91.465	-161.0320
7000.000000	91.566	-158.9926
7100.000000	91.706	-157.0087
7200.000000	91.879	-155.1309
7300.000000	92.078	-153.3791
7400.000000	92.296	-151.7071
7500.000000	92.532	-150.0614
7620.000000	92.849	-148.0898
7750.000000	93.236	-145.9854
7880.000000	93.687	-143.9074
8000.000000	94.213	-142.0759
8120.000000	94.865	-140.6293
8250.000000	95.709	-139.8190
8380.000000	96.687	-140.1104
8500.000000	97.690	-141.7357
8620.000000	98.737	-145.1309
8750.000000	99.808	-151.3594
8850.000000	100.477	-158.1411
9000.000000	101.017	-171.0390
9120.000000	100.923	177.6597
9250.000000	100.292	166.4192
9380.000000	99.248	157.6618
9500.000000	98.089	152.1657
9620.000000	96.888	148.8896
9750.000000	95.645	147.3015
9880.000000	94.525	147.1921
10000.000000	93.621	147.9987
10150.000000	92.662	149.8151
10300.000000	91.882	152.1993
10440.000000	91.302	154.6799
10600.000000	90.798	157.5904
10750.000000	90.471	160.2396
10900.000000	90.274	162.6355
11060.000000	90.191	164.6709
11200.000000	90.212	165.8070
11380.000000	90.319	166.0690
11500.000000	90.400	165.3267
11720.000000	90.430	161.9125
11800.000000	90.360	160.1087
12060.000000	89.679	153.6299
12200.000000	89.022	150.8447
12410.000000	87.809	148.9337
12500.000000	87.261	149.0342
12650.000000	86.373	150.3054
12800.000000	85.569	152.6882
13150.000000	84.186	160.6705
13200.000000	84.048	161.9346
13400.000000	83.636	166.9971
13600.000000	83.437	171.8549
13800.000000	83.446	176.2483
14000.000000	83.616	-179.9603
14300.000000	84.040	-175.6127
14500.000000	84.399	-173.7487
14750.000000	84.874	-172.7368
15000.000000	85.301	-173.2214
15250.000000	85.602	-175.0686
15500.000000	85.704	-177.8113
15750.000000	85.577	179.1351
16000.000000	85.247	176.3685
16250.000000	84.790	174.2382
16500.000000	84.262	172.6536
16750.000000	83.686	171.5933
17000.000000	83.092	170.9680
17250.000000	82.445	170.3361
17500.000000	81.644	169.5125
17750.000000	80.650	168.7711
18000.000000	79.486	168.6000
18250.000000	78.187	169.5613
18500.000000	76.808	171.7967
18750.000000	75.377	175.4577
19000.000000	73.935	-178.9691
19250.000000	72.576	-171.0053
19500.000000	71.462	-161.0139
19750.000000	70.683	-150.9820
20000.000000	70.264	-144.9021
