* Measurement data measured by REW V5.20.5
* Source: Microphone(Cirrus Logic CS4208 (AB 126)), MICROPHONE (마스), L, volume: 0.850
* Format: 128k Log Swept Sine, 1 sweep at -12.0 dBFS with no timing reference
* Dated: 2022. 4. 10 오후 8:57:58
* REW Settings:
*  C-weighting compensation: Off
*  Target level: 75.0 dB
* Note: 
* Measurement: nobass_l
* Smoothing: 1/24 octave
* Frequency Step: 1/48 octave
* Start Frequency: 20.000 Hz
*
* Freq(Hz)	SPL(dB)	Phase(degrees)
20.299999	81.902	-169.3808
20.600000	81.848	-168.8889
20.900000	81.874	-168.4592
21.200001	81.946	-168.3914
21.400000	81.992	-168.5868
21.799999	82.039	-169.3970
22.000000	82.027	-169.8897
22.400000	81.935	-170.7376
22.700001	81.836	-171.0741
23.000000	81.747	-171.1050
23.299999	81.689	-170.9418
23.600000	81.667	-170.7399
24.000000	81.684	-170.6379
24.299999	81.708	-170.7585
24.700001	81.726	-171.0809
25.000000	81.726	-171.2956
25.400000	81.733	-171.4173
25.799999	81.791	-171.4656
26.200001	81.904	-171.7919
26.500000	81.990	-172.3940
26.900000	82.046	-173.6296
27.200001	82.014	-174.6159
27.600000	81.872	-175.4980
28.000000	81.693	-175.4357
28.500000	81.593	-174.2278
29.000000	81.727	-173.0950
29.500000	81.966	-173.1692
30.000000	82.112	-174.2800
30.400000	82.124	-175.2444
30.700001	82.100	-175.7608
31.100000	82.071	-176.1580
31.500000	82.065	-176.4071
32.000000	82.075	-176.7874
32.500000	82.070	-177.2483
33.000000	82.040	-177.5973
33.500000	81.996	-177.7484
34.000000	81.950	-177.6928
34.500000	81.919	-177.4056
35.000000	81.933	-176.9974
35.500000	81.990	-176.8107
36.000000	82.030	-177.0308
36.500000	82.000	-177.3418
37.000000	81.928	-177.2392
37.500000	81.906	-176.7659
38.200001	82.003	-176.7321
38.700001	82.035	-177.5959
39.500000	81.824	-178.8014
40.000000	81.639	-178.4920
40.599998	81.551	-177.3857
41.200001	81.641	-176.5670
41.799999	81.815	-176.6165
42.500000	82.004	-177.7726
43.099998	82.080	-179.3339
43.700001	82.057	179.2023
44.400002	81.969	178.1236
45.000000	81.892	177.6241
45.500000	81.819	177.4230
46.200001	81.710	177.7598
46.799999	81.699	178.6250
47.500000	81.840	179.3047
48.200001	81.987	178.8232
48.700001	81.991	178.1024
49.400002	81.848	177.5941
50.000000	81.697	178.0408
50.799999	81.635	179.2751
51.500000	81.724	179.8186
52.200001	81.819	179.3013
53.000000	81.798	178.0280
53.799999	81.667	177.1618
54.500000	81.575	176.8777
55.200001	81.541	176.6196
56.000000	81.543	176.1694
57.000000	81.580	175.4687
58.000000	81.604	174.6935
59.000000	81.589	174.3101
60.000000	81.580	174.5314
60.799999	81.608	175.0510
61.500000	81.672	175.4541
62.200001	81.735	175.5035
63.000000	81.744	175.1735
64.000000	81.646	174.7019
65.000000	81.521	174.5709
66.000000	81.481	174.3983
67.000000	81.464	173.5695
68.000000	81.382	172.8716
69.000000	81.339	172.7446
70.000000	81.337	172.6442
71.000000	81.322	172.6597
72.000000	81.308	172.7585
73.000000	81.267	172.7875
74.000000	81.215	172.8399
75.000000	81.184	172.7377
76.199997	81.160	172.3612
77.500000	81.141	171.8192
78.800003	81.126	171.6070
80.000000	81.154	171.6480
81.199997	81.163	171.6687
82.500000	81.148	171.7785
83.800003	81.109	171.7867
85.000000	81.070	171.8096
86.199997	81.036	171.5752
87.500000	80.952	171.3219
88.500000	80.910	171.4169
90.000000	80.919	171.3254
91.199997	80.892	170.9723
92.500000	80.824	170.8495
93.800003	80.784	170.8711
95.000000	80.745	170.7938
96.199997	80.700	170.8079
97.500000	80.656	170.8673
98.800003	80.613	171.0132
100.000000	80.579	171.1759
101.500000	80.552	171.4009
103.000000	80.536	171.4252
104.400002	80.501	171.4441
106.000000	80.485	171.5547
107.500000	80.490	171.4337
109.000000	80.473	171.1167
110.599998	80.424	170.9159
112.000000	80.384	170.9673
113.800003	80.355	171.2103
115.000000	80.349	171.3705
117.199997	80.328	171.4381
118.000000	80.308	171.4150
120.599998	80.236	171.4079
122.000000	80.204	171.4012
124.099998	80.156	171.5601
125.000000	80.144	171.6868
126.500000	80.134	171.8364
128.000000	80.114	171.8654
131.500000	80.029	171.9063
132.000000	80.017	171.9154
134.000000	79.973	172.0398
136.000000	79.950	172.3130
138.000000	79.944	172.6077
140.000000	79.932	172.7559
143.000000	79.871	172.9615
145.000000	79.836	173.1298
147.500000	79.802	173.2444
150.000000	79.759	173.2289
152.500000	79.719	173.4304
155.000000	79.716	173.7532
157.500000	79.701	174.0408
160.000000	79.665	174.3086
162.500000	79.642	174.5674
165.000000	79.649	174.9343
167.500000	79.663	175.3220
170.000000	79.642	175.5873
172.500000	79.597	175.7395
175.000000	79.580	175.9342
177.500000	79.579	176.2163
180.000000	79.550	176.5916
182.500000	79.498	176.9551
185.000000	79.448	177.2444
187.500000	79.414	177.5212
190.000000	79.395	177.8100
192.500000	79.388	178.0715
195.000000	79.381	178.3293
197.500000	79.372	178.6765
200.000000	79.371	179.0470
203.000000	79.383	179.3699
206.000000	79.397	179.6903
209.000000	79.409	-179.8861
212.000000	79.426	-179.4515
214.000000	79.443	-179.2002
218.000000	79.460	-178.7966
220.000000	79.451	-178.5641
224.000000	79.453	-178.0669
227.000000	79.467	-177.7627
230.000000	79.473	-177.4621
233.000000	79.479	-177.1744
236.000000	79.490	-176.9040
240.000000	79.510	-176.4930
243.000000	79.530	-176.1969
247.000000	79.572	-175.8435
250.000000	79.595	-175.5804
254.000000	79.605	-175.2332
258.000000	79.611	-174.9347
262.000000	79.640	-174.6784
265.000000	79.673	-174.5013
269.000000	79.705	-174.2603
272.000000	79.716	-174.0496
276.000000	79.735	-173.7641
280.000000	79.763	-173.5354
285.000000	79.805	-173.2695
290.000000	79.852	-173.0057
295.000000	79.892	-172.7678
300.000000	79.928	-172.5615
304.000000	79.953	-172.4036
307.000000	79.976	-172.2725
311.000000	80.015	-172.1139
315.000000	80.061	-172.0090
320.000000	80.125	-171.9016
325.000000	80.180	-171.7766
330.000000	80.232	-171.7076
335.000000	80.280	-171.7026
340.000000	80.326	-171.6655
345.000000	80.373	-171.6310
350.000000	80.417	-171.6200
355.000000	80.454	-171.5616
360.000000	80.484	-171.5089
365.000000	80.516	-171.4938
370.000000	80.554	-171.4904
375.000000	80.588	-171.5054
382.000000	80.633	-171.5292
387.000000	80.666	-171.5556
395.000000	80.714	-171.5751
400.000000	80.748	-171.5805
406.000000	80.788	-171.6078
412.000000	80.818	-171.6317
418.000000	80.844	-171.6523
425.000000	80.882	-171.7144
431.000000	80.914	-171.7700
437.000000	80.945	-171.8138
444.000000	80.975	-171.8537
450.000000	81.002	-171.8950
455.000000	81.026	-171.9286
462.000000	81.061	-171.9743
468.000000	81.089	-172.0149
475.000000	81.119	-172.0701
482.000000	81.149	-172.1239
487.000000	81.170	-172.1566
494.000000	81.200	-172.2115
500.000000	81.227	-172.2611
508.000000	81.263	-172.3221
515.000000	81.290	-172.3682
522.000000	81.317	-172.4135
530.000000	81.355	-172.4875
538.000000	81.396	-172.5732
545.000000	81.427	-172.6330
552.000000	81.452	-172.6810
560.000000	81.482	-172.7414
570.000000	81.534	-172.8498
580.000000	81.586	-172.9853
590.000000	81.631	-173.1478
600.000000	81.675	-173.3442
608.000000	81.715	-173.5191
615.000000	81.755	-173.6770
622.000000	81.796	-173.8470
630.000000	81.839	-174.0777
640.000000	81.891	-174.4192
650.000000	81.939	-174.8061
660.000000	81.982	-175.2448
670.000000	82.021	-175.7242
680.000000	82.054	-176.2472
690.000000	82.072	-176.8138
700.000000	82.079	-177.3964
710.000000	82.080	-177.9969
720.000000	82.072	-178.6104
730.000000	82.053	-179.2157
740.000000	82.023	-179.8067
750.000000	81.981	179.6386
762.000000	81.914	179.0264
775.000000	81.830	178.4359
788.000000	81.738	177.9583
800.000000	81.645	177.6225
812.000000	81.546	177.3748
825.000000	81.437	177.1863
838.000000	81.330	177.0875
850.000000	81.228	177.0866
862.000000	81.127	177.1619
875.000000	81.029	177.3049
885.000000	80.961	177.4526
900.000000	80.863	177.7288
912.000000	80.789	177.9843
925.000000	80.718	178.3011
938.000000	80.657	178.6530
950.000000	80.606	178.9870
962.000000	80.560	179.3269
975.000000	80.514	179.7150
988.000000	80.475	-179.8938
1000.000000	80.444	-179.5438
1015.000000	80.412	-179.1089
1030.000000	80.390	-178.6763
1044.000000	80.372	-178.2841
1060.000000	80.352	-177.8477
1075.000000	80.336	-177.4465
1090.000000	80.326	-177.0712
1106.000000	80.322	-176.6930
1120.000000	80.322	-176.3702
1138.000000	80.324	-175.9742
1150.000000	80.325	-175.7172
1172.000000	80.323	-175.2422
1180.000000	80.321	-175.0732
1206.000000	80.304	-174.5486
1220.000000	80.287	-174.2728
1241.000000	80.255	-173.8611
1250.000000	80.243	-173.6805
1265.000000	80.238	-173.3688
1280.000000	80.261	-173.0504
1315.000000	80.411	-172.2913
1320.000000	80.436	-172.1817
1340.000000	80.532	-171.7348
1360.000000	80.611	-171.2698
1380.000000	80.664	-170.7936
1400.000000	80.696	-170.3047
1430.000000	80.734	-169.5365
1450.000000	80.762	-169.0079
1475.000000	80.809	-168.3396
1500.000000	80.872	-167.6539
1525.000000	80.939	-166.9545
1550.000000	81.013	-166.2622
1575.000000	81.100	-165.5794
1600.000000	81.198	-164.8999
1625.000000	81.306	-164.2227
1650.000000	81.424	-163.5743
1675.000000	81.553	-162.9654
1700.000000	81.693	-162.3943
1725.000000	81.846	-161.8615
1750.000000	82.010	-161.3876
1775.000000	82.178	-160.9759
1800.000000	82.353	-160.6380
1825.000000	82.535	-160.3826
1850.000000	82.721	-160.2085
1875.000000	82.909	-160.1067
1900.000000	83.100	-160.0692
1925.000000	83.293	-160.1056
1950.000000	83.487	-160.2174
1975.000000	83.684	-160.4019
2000.000000	83.885	-160.6655
2030.000000	84.129	-161.1230
2060.000000	84.369	-161.7802
2090.000000	84.594	-162.6127
2120.000000	84.800	-163.5826
2140.000000	84.926	-164.2889
2180.000000	85.155	-165.8205
2200.000000	85.257	-166.6361
2240.000000	85.433	-168.3427
2270.000000	85.539	-169.6739
2300.000000	85.623	-171.0345
2330.000000	85.687	-172.3999
2360.000000	85.734	-173.7499
2400.000000	85.772	-175.5022
2430.000000	85.782	-176.7591
2470.000000	85.773	-178.3301
2500.000000	85.753	-179.4231
2540.000000	85.716	179.2322
2580.000000	85.672	177.9819
2620.000000	85.618	176.7730
2650.000000	85.571	175.8831
2690.000000	85.498	174.7394
2720.000000	85.434	173.9375
2760.000000	85.336	172.9644
2800.000000	85.230	172.1035
2850.000000	85.095	171.1705
2900.000000	84.961	170.3630
2950.000000	84.828	169.6533
3000.000000	84.697	169.0161
3040.000000	84.595	168.5496
3070.000000	84.519	168.2225
3110.000000	84.417	167.8132
3150.000000	84.317	167.4208
3200.000000	84.192	166.9412
3250.000000	84.069	166.4883
3300.000000	83.942	166.0690
3350.000000	83.813	165.6862
3400.000000	83.686	165.3276
3450.000000	83.561	164.9767
3500.000000	83.439	164.5851
3550.000000	83.312	164.1037
3600.000000	83.169	163.5105
3650.000000	82.993	162.8303
3700.000000	82.775	162.1334
3750.000000	82.509	161.5027
3820.000000	82.060	160.9077
3870.000000	81.691	160.7903
3950.000000	81.044	161.3370
4000.000000	80.618	162.2356
4060.000000	80.096	163.9505
4120.000000	79.574	166.4231
4180.000000	79.074	169.6982
4250.000000	78.568	174.5540
4310.000000	78.258	179.5322
4370.000000	78.132	-174.9848
4440.000000	78.274	-168.5736
4500.000000	78.623	-163.6420
4550.000000	79.021	-160.1998
4620.000000	79.652	-156.5157
4680.000000	80.205	-154.2565
4750.000000	80.834	-152.3484
4820.000000	81.456	-150.9875
4870.000000	81.910	-150.3298
4940.000000	82.566	-149.9614
5000.000000	83.133	-150.2915
5080.000000	83.855	-151.7758
5150.000000	84.410	-154.0088
5220.000000	84.863	-156.9452
5300.000000	85.232	-160.9077
5380.000000	85.434	-165.1998
5450.000000	85.482	-168.9838
5520.000000	85.421	-172.6209
5600.000000	85.234	-176.4386
5700.000000	84.856	179.4968
5800.000000	84.367	176.3371
5900.000000	83.826	174.0684
6000.000000	83.273	172.6018
6080.000000	82.845	171.9539
6150.000000	82.494	171.7252
6220.000000	82.163	171.7679
6300.000000	81.807	172.1143
6400.000000	81.405	172.8975
6500.000000	81.063	173.9724
6600.000000	80.784	175.2696
6700.000000	80.575	176.7117
6800.000000	80.447	178.2003
6900.000000	80.403	179.6770
7000.000000	80.444	-178.9343
7100.000000	80.569	-177.7429
7200.000000	80.791	-176.8480
7300.000000	81.127	-176.3752
7400.000000	81.570	-176.5321
7500.000000	82.103	-177.5415
7620.000000	82.836	179.7243
7750.000000	83.660	174.0679
7880.000000	84.274	164.7480
8000.000000	84.391	152.8402
8120.000000	83.883	139.3220
8250.000000	82.603	125.8551
8380.000000	80.780	115.8708
8500.000000	78.904	110.0588
8620.000000	77.034	106.8659
8750.000000	75.106	105.5028
8850.000000	73.723	105.5015
9000.000000	71.846	106.6219
9120.000000	70.491	108.1411
9250.000000	69.140	110.2764
9380.000000	67.894	112.8008
9500.000000	66.812	115.3788
9620.000000	65.790	118.1502
9750.000000	64.755	121.3464
9880.000000	63.774	124.6920
10000.000000	62.910	127.8530
10150.000000	61.897	131.8561
10300.000000	60.944	136.0180
10440.000000	60.078	140.1024
10600.000000	59.091	145.1299
10750.000000	58.172	150.3321
10900.000000	57.277	156.1933
11060.000000	56.377	163.4412
11200.000000	55.685	170.7782
11380.000000	55.027	-178.6139
11500.000000	54.782	-171.1621
11720.000000	54.774	-158.0644
11800.000000	54.879	-153.7120
12060.000000	55.427	-141.6129
12200.000000	55.782	-136.2187
12410.000000	56.325	-128.9821
12500.000000	56.562	-126.0891
12650.000000	56.973	-121.4734
12800.000000	57.414	-117.0767
13150.000000	58.524	-107.5531
13200.000000	58.689	-106.2486
13400.000000	59.379	-101.1180
13600.000000	60.190	-96.3582
13800.000000	61.235	-92.2525
14000.000000	62.672	-89.4564
14300.000000	65.666	-91.4883
14500.000000	67.567	-102.1103
14750.000000	68.290	-127.3501
15000.000000	66.486	-150.1184
15250.000000	63.153	-157.5563
15500.000000	59.826	-154.0342
15750.000000	57.265	-145.8253
16000.000000	55.551	-135.7635
16250.000000	54.581	-125.2011
16500.000000	54.209	-114.8487
16750.000000	54.382	-105.1059
17000.000000	55.100	-96.9929
17250.000000	56.401	-91.5754
17500.000000	58.210	-91.2206
17750.000000	59.971	-99.4982
18000.000000	60.781	-117.8519
18250.000000	60.044	-139.8590
18500.000000	57.919	-155.5928
18750.000000	55.078	-162.7946
19000.000000	52.145	-164.8421
19250.000000	49.419	-164.1900
19500.000000	46.946	-162.1657
19750.000000	44.576	-159.6480
20000.000000	42.887	-157.3884
