* Measurement data measured by REW V5.20.7
* Source: ???(Realtek High Definition Audi, no input selected, L, volume: no control
* Format: 128k Log Swept Sine, 1 sweep at -12.0 dBFS with no timing reference
* Dated: 14-Oct-2022 00:58:48
* REW Settings:
*  C-weighting compensation: Off
*  Target level: 75.0 dB
* Note: ; 
* Measurement: Neo Infinity NEO-E200 R
* Smoothing: 1/24 octave
* Frequency Step: 1/48 octave
* Start Frequency: 20.300 Hz
*
* Freq(Hz)	SPL(dB)	Phase(degrees)
20.299999	76.811	-108.9004
20.600000	76.869	-108.8168
20.900000	77.003	-108.7552
21.200001	77.163	-108.9518
21.400000	77.272	-109.2568
21.799999	77.472	-110.1895
22.000000	77.556	-110.7467
22.400000	77.686	-111.8684
22.700001	77.765	-112.6377
23.000000	77.842	-113.3473
23.299999	77.918	-114.0529
23.600000	77.988	-114.7793
24.000000	78.060	-115.7407
24.299999	78.094	-116.3539
24.700001	78.128	-116.8895
25.000000	78.167	-117.0681
25.400000	78.265	-117.1548
25.799999	78.414	-117.3645
26.200001	78.579	-117.9134
26.500000	78.685	-118.5307
26.900000	78.784	-119.4668
27.200001	78.830	-120.1167
27.600000	78.874	-120.8152
28.000000	78.926	-121.3687
28.500000	79.014	-122.0761
29.000000	79.103	-122.9493
29.500000	79.170	-123.8877
30.000000	79.223	-124.7174
30.400000	79.274	-125.2919
30.700001	79.320	-125.7126
31.100000	79.389	-126.3163
31.500000	79.456	-126.9791
32.000000	79.524	-127.8177
32.500000	79.579	-128.5406
33.000000	79.639	-129.0925
33.500000	79.726	-129.5627
34.000000	79.836	-130.1288
34.500000	79.943	-130.8974
35.000000	80.017	-131.7944
35.500000	80.053	-132.6102
36.000000	80.073	-133.2032
36.500000	80.109	-133.6345
37.000000	80.165	-134.0940
37.500000	80.222	-134.6814
38.200001	80.276	-135.5608
38.700001	80.307	-136.0916
39.500000	80.388	-136.9291
40.000000	80.443	-137.6041
40.599998	80.486	-138.5102
41.200001	80.500	-139.2969
41.799999	80.515	-139.8725
42.500000	80.560	-140.4272
43.099998	80.615	-140.9646
43.700001	80.666	-141.5771
44.400002	80.715	-142.3228
45.000000	80.751	-142.9752
45.500000	80.774	-143.5338
46.200001	80.793	-144.2898
46.799999	80.805	-144.8575
47.500000	80.832	-145.4725
48.200001	80.870	-146.1391
48.700001	80.895	-146.6327
49.400002	80.933	-147.2801
50.000000	80.978	-147.8353
50.799999	81.043	-148.7185
51.500000	81.076	-149.5627
52.200001	81.088	-150.2892
53.000000	81.104	-150.9463
53.799999	81.128	-151.5725
54.500000	81.145	-152.1483
55.200001	81.152	-152.7144
56.000000	81.154	-153.3082
57.000000	81.167	-154.0005
58.000000	81.194	-154.8017
59.000000	81.211	-155.7146
60.000000	81.224	-156.5531
60.799999	81.245	-157.1944
61.500000	81.267	-157.7760
62.200001	81.286	-158.3611
63.000000	81.302	-158.9998
64.000000	81.313	-159.7245
65.000000	81.319	-160.3727
66.000000	81.324	-160.9761
67.000000	81.332	-161.6147
68.000000	81.333	-162.3401
69.000000	81.322	-163.0850
70.000000	81.308	-163.7874
71.000000	81.301	-164.4347
72.000000	81.304	-165.0691
73.000000	81.312	-165.7104
74.000000	81.318	-166.3523
75.000000	81.318	-166.9793
76.199997	81.309	-167.6989
77.500000	81.290	-168.4306
78.800003	81.276	-169.1418
80.000000	81.264	-169.8396
81.199997	81.250	-170.5449
82.500000	81.232	-171.2891
83.800003	81.214	-171.9857
85.000000	81.201	-172.6082
86.199997	81.186	-173.2376
87.500000	81.167	-173.8885
88.500000	81.153	-174.3721
90.000000	81.131	-175.0942
91.199997	81.110	-175.6550
92.500000	81.086	-176.2581
93.800003	81.057	-176.8608
95.000000	81.028	-177.3971
96.199997	81.002	-177.9189
97.500000	80.979	-178.5016
98.800003	80.955	-179.1076
100.000000	80.930	-179.6633
101.500000	80.894	179.6770
103.000000	80.858	179.0725
104.400002	80.829	178.5169
106.000000	80.797	177.8781
107.500000	80.764	177.2782
109.000000	80.727	176.7028
110.599998	80.685	176.1286
112.000000	80.649	175.6339
113.800003	80.602	174.9860
115.000000	80.571	174.5567
117.199997	80.515	173.8001
118.000000	80.495	173.5347
120.599998	80.427	172.7097
122.000000	80.388	172.2782
124.099998	80.328	171.6385
125.000000	80.303	171.3677
126.500000	80.262	170.9272
128.000000	80.221	170.5032
131.500000	80.122	169.5751
132.000000	80.107	169.4447
134.000000	80.048	168.9204
136.000000	79.988	168.4080
138.000000	79.931	167.9240
140.000000	79.877	167.4629
143.000000	79.797	166.7736
145.000000	79.741	166.3193
147.500000	79.673	165.7805
150.000000	79.606	165.2491
152.500000	79.538	164.7217
155.000000	79.470	164.1927
157.500000	79.401	163.6783
160.000000	79.329	163.1805
162.500000	79.256	162.6893
165.000000	79.182	162.2143
167.500000	79.110	161.7691
170.000000	79.042	161.3539
172.500000	78.976	160.9539
175.000000	78.910	160.5629
177.500000	78.844	160.1726
180.000000	78.777	159.7877
182.500000	78.710	159.4286
185.000000	78.643	159.0859
187.500000	78.578	158.7463
190.000000	78.512	158.4141
192.500000	78.445	158.0927
195.000000	78.378	157.7874
197.500000	78.315	157.4909
200.000000	78.254	157.1977
203.000000	78.178	156.8616
206.000000	78.101	156.5416
209.000000	78.021	156.2296
212.000000	77.942	155.9296
214.000000	77.890	155.7365
218.000000	77.784	155.3657
220.000000	77.729	155.1862
224.000000	77.620	154.8448
227.000000	77.540	154.6020
230.000000	77.460	154.3555
233.000000	77.377	154.1169
236.000000	77.297	153.8917
240.000000	77.195	153.6010
243.000000	77.119	153.3954
247.000000	77.017	153.1471
250.000000	76.941	152.9777
254.000000	76.842	152.7640
258.000000	76.743	152.5555
262.000000	76.645	152.3528
265.000000	76.573	152.2090
269.000000	76.478	152.0434
272.000000	76.408	151.9322
276.000000	76.317	151.7841
280.000000	76.227	151.6416
285.000000	76.115	151.4747
290.000000	76.005	151.3393
295.000000	75.897	151.2185
300.000000	75.786	151.1173
304.000000	75.698	151.0552
307.000000	75.635	151.0136
311.000000	75.553	150.9683
315.000000	75.469	150.9333
320.000000	75.366	150.9028
325.000000	75.263	150.8912
330.000000	75.163	150.8904
335.000000	75.064	150.9023
340.000000	74.966	150.9354
345.000000	74.870	150.9744
350.000000	74.777	151.0101
355.000000	74.681	151.0631
360.000000	74.583	151.1276
365.000000	74.489	151.1968
370.000000	74.400	151.2766
375.000000	74.311	151.3552
382.000000	74.185	151.4744
387.000000	74.096	151.5801
395.000000	73.959	151.7567
400.000000	73.874	151.8742
406.000000	73.774	152.0299
412.000000	73.676	152.1841
418.000000	73.581	152.3426
425.000000	73.470	152.5507
431.000000	73.374	152.7669
437.000000	73.279	153.0072
444.000000	73.172	153.2760
450.000000	73.082	153.4874
455.000000	73.008	153.6714
462.000000	72.907	153.9498
468.000000	72.821	154.1932
475.000000	72.725	154.4880
482.000000	72.631	154.7963
487.000000	72.564	155.0209
494.000000	72.472	155.3402
500.000000	72.394	155.6194
508.000000	72.292	156.0096
515.000000	72.206	156.3641
522.000000	72.123	156.7306
530.000000	72.029	157.1477
538.000000	71.935	157.5580
545.000000	71.851	157.9330
552.000000	71.768	158.3287
560.000000	71.679	158.7830
570.000000	71.570	159.3646
580.000000	71.461	159.9586
590.000000	71.356	160.5588
600.000000	71.255	161.1990
608.000000	71.178	161.7092
615.000000	71.112	162.1469
622.000000	71.046	162.5858
630.000000	70.973	163.0982
640.000000	70.889	163.7427
650.000000	70.807	164.3842
660.000000	70.726	165.0522
670.000000	70.648	165.7421
680.000000	70.573	166.4449
690.000000	70.505	167.1659
700.000000	70.438	167.8916
710.000000	70.372	168.5984
720.000000	70.314	169.2930
730.000000	70.261	170.0168
740.000000	70.207	170.7733
750.000000	70.154	171.5262
762.000000	70.092	172.4319
775.000000	70.032	173.4130
788.000000	69.973	174.4087
800.000000	69.922	175.3025
812.000000	69.877	176.1850
825.000000	69.834	177.1516
838.000000	69.794	178.0798
850.000000	69.760	178.9401
862.000000	69.729	179.8185
875.000000	69.695	-179.2577
885.000000	69.669	-178.5610
900.000000	69.632	-177.4966
912.000000	69.604	-176.6514
925.000000	69.576	-175.7443
938.000000	69.550	-174.8345
950.000000	69.522	-174.0011
962.000000	69.486	-173.1488
975.000000	69.438	-172.1242
988.000000	69.387	-170.8395
1000.000000	69.370	-169.2955
1015.000000	69.464	-167.1967
1030.000000	69.650	-165.5544
1044.000000	69.845	-164.2887
1060.000000	70.147	-163.2269
1075.000000	70.410	-163.4805
1090.000000	70.459	-164.3087
1106.000000	70.357	-164.5098
1120.000000	70.257	-164.1327
1138.000000	70.157	-163.3842
1150.000000	70.104	-162.8895
1172.000000	70.024	-162.1861
1180.000000	70.006	-161.9967
1206.000000	70.025	-161.3433
1220.000000	70.066	-160.7722
1241.000000	70.101	-159.7439
1250.000000	70.104	-159.3790
1265.000000	70.121	-158.9057
1280.000000	70.158	-158.4205
1315.000000	70.225	-157.0369
1320.000000	70.233	-156.8570
1340.000000	70.274	-156.1218
1360.000000	70.317	-155.3402
1380.000000	70.363	-154.5610
1400.000000	70.414	-153.7698
1430.000000	70.500	-152.6419
1450.000000	70.551	-151.8662
1475.000000	70.609	-150.8580
1500.000000	70.663	-149.8311
1525.000000	70.715	-148.7534
1550.000000	70.770	-147.6554
1575.000000	70.826	-146.5255
1600.000000	70.885	-145.3882
1625.000000	70.953	-144.2332
1650.000000	71.032	-143.0666
1675.000000	71.120	-141.9090
1700.000000	71.220	-140.7614
1725.000000	71.332	-139.6280
1750.000000	71.455	-138.5179
1775.000000	71.587	-137.4240
1800.000000	71.724	-136.3249
1825.000000	71.868	-135.2260
1850.000000	72.020	-134.1387
1875.000000	72.184	-133.0474
1900.000000	72.359	-131.9529
1925.000000	72.549	-130.8784
1950.000000	72.758	-129.8398
1975.000000	72.983	-128.8900
2000.000000	73.221	-128.0966
2030.000000	73.511	-127.3273
2060.000000	73.803	-126.6928
2090.000000	74.093	-126.1668
2120.000000	74.383	-125.7217
2140.000000	74.577	-125.4618
2180.000000	74.966	-125.0538
2200.000000	75.161	-124.9193
2240.000000	75.555	-124.7932
2270.000000	75.851	-124.8393
2300.000000	76.143	-125.0322
2330.000000	76.430	-125.3649
2360.000000	76.710	-125.8169
2400.000000	77.068	-126.6019
2430.000000	77.326	-127.3299
2470.000000	77.649	-128.4836
2500.000000	77.872	-129.5017
2540.000000	78.133	-131.0215
2580.000000	78.353	-132.6671
2620.000000	78.531	-134.3947
2650.000000	78.636	-135.7144
2690.000000	78.738	-137.4688
2720.000000	78.788	-138.7598
2760.000000	78.823	-140.4219
2800.000000	78.825	-141.9981
2850.000000	78.784	-143.8116
2900.000000	78.701	-145.3764
2950.000000	78.590	-146.6600
3000.000000	78.459	-147.5908
3040.000000	78.352	-148.0303
3070.000000	78.281	-148.1653
3110.000000	78.213	-148.1098
3150.000000	78.194	-147.8882
3200.000000	78.242	-147.6196
3250.000000	78.338	-147.6171
3300.000000	78.436	-147.9070
3350.000000	78.513	-148.3016
3400.000000	78.575	-148.6353
3450.000000	78.641	-148.8536
3500.000000	78.724	-148.9709
3550.000000	78.832	-149.0261
3600.000000	78.968	-149.0756
3650.000000	79.134	-149.1845
3700.000000	79.332	-149.4072
3750.000000	79.556	-149.7885
3820.000000	79.906	-150.6894
3870.000000	80.170	-151.6469
3950.000000	80.583	-153.6815
4000.000000	80.823	-155.1299
4060.000000	81.110	-156.8908
4120.000000	81.441	-158.7696
4180.000000	81.833	-161.1684
4250.000000	82.309	-165.1846
4310.000000	82.641	-169.8249
4370.000000	82.822	-175.3461
4440.000000	82.767	177.6948
4500.000000	82.446	172.0296
4550.000000	81.976	168.3444
4620.000000	81.188	166.2659
4680.000000	80.801	166.2857
4750.000000	80.643	164.3339
4820.000000	80.245	160.4225
4870.000000	79.777	157.8912
4940.000000	79.020	155.5378
5000.000000	78.349	154.5496
5080.000000	77.473	154.2372
5150.000000	76.748	154.6143
5220.000000	76.065	155.4221
5300.000000	75.332	156.7387
5380.000000	74.631	158.4113
5450.000000	74.034	160.1782
5520.000000	73.454	162.2620
5600.000000	72.826	165.0352
5700.000000	72.116	169.0080
5800.000000	71.497	173.3726
5900.000000	70.965	178.0115
6000.000000	70.512	-177.1265
6080.000000	70.202	-173.0653
6150.000000	69.971	-169.3883
6220.000000	69.780	-165.5819
6300.000000	69.621	-161.0207
6400.000000	69.572	-155.1572
6500.000000	69.682	-150.1050
6600.000000	69.749	-145.9418
6700.000000	69.759	-141.4874
6800.000000	69.823	-136.5466
6900.000000	69.983	-131.4273
7000.000000	70.229	-126.3561
7100.000000	70.544	-121.3541
7200.000000	70.920	-116.3293
7300.000000	71.367	-111.2167
7400.000000	71.920	-105.9488
7500.000000	72.633	-100.5284
7620.000000	73.796	-94.2045
7750.000000	75.504	-88.9159
7880.000000	77.487	-87.5643
8000.000000	79.116	-91.2623
8120.000000	80.175	-98.4847
8250.000000	80.641	-106.5814
8380.000000	80.704	-112.3506
8500.000000	80.681	-115.6057
8620.000000	80.695	-117.6753
8750.000000	80.767	-119.2579
8850.000000	80.853	-120.2306
9000.000000	81.020	-121.3813
9120.000000	81.199	-122.0628
9250.000000	81.459	-122.6961
9380.000000	81.786	-123.4340
9500.000000	82.136	-124.3395
9620.000000	82.520	-125.4861
9750.000000	82.971	-126.9755
9880.000000	83.472	-128.7119
10000.000000	83.997	-130.5913
10150.000000	84.757	-133.6319
10300.000000	85.618	-138.0554
10440.000000	86.443	-144.0402
10600.000000	87.261	-153.6848
10750.000000	87.687	-165.5294
10900.000000	87.577	-178.7465
11060.000000	86.834	168.3993
11200.000000	85.802	159.9352
11380.000000	84.287	153.2778
11500.000000	83.327	150.9552
11720.000000	81.913	149.3039
11800.000000	81.538	149.0981
12060.000000	80.786	148.2892
12200.000000	80.661	147.2737
12410.000000	80.834	143.7961
12500.000000	80.996	141.1131
12650.000000	81.252	134.4435
12800.000000	81.295	124.8956
13150.000000	79.579	98.6453
13200.000000	79.111	95.5494
13400.000000	76.900	86.5391
13600.000000	74.496	82.4658
13800.000000	72.264	81.7767
14000.000000	70.327	83.1584
14300.000000	67.919	87.5923
14500.000000	66.616	91.4161
14750.000000	65.272	96.4929
15000.000000	64.194	101.7379
15250.000000	63.367	107.0387
15500.000000	62.794	112.6891
15750.000000	62.685	118.5946
16000.000000	63.238	122.8456
16250.000000	64.309	123.0519
16500.000000	65.551	116.8718
16750.000000	66.368	102.9088
17000.000000	66.134	83.9555
17250.000000	64.721	66.7184
17500.000000	62.504	55.1037
17750.000000	60.046	48.5999
18000.000000	57.822	45.3455
18250.000000	56.149	43.3727
18500.000000	55.239	40.2061
18750.000000	55.167	32.8148
19000.000000	55.703	17.6454
19250.000000	56.258	-9.0241
19500.000000	56.077	-47.1403
19750.000000	54.819	-87.6266
20000.000000	53.435	-112.1848
