* Measurement data measured by REW V5.20.7
* Source: Mic in at rear panel (Pink)(Realtek(R) Audio), MICROPHONE (마스), L, volume: 1.000
* Format: 128k Log Swept Sine, 1 sweep at -12.0 dBFS with no timing reference
* Dated: 2022. 5. 13 오후 8:36:18
* REW Settings:
*  C-weighting compensation: Off
*  Target level: 75.0 dB
* Note: 
* Measurement: L
* Smoothing: 1/24 octave
* Frequency Step: 1/48 octave
* Start Frequency: 20.300 Hz
*
* Freq(Hz)	SPL(dB)	Phase(degrees)
20.299999	87.755	-141.6877
20.600000	87.776	-142.1150
20.900000	87.816	-142.8709
21.200001	87.849	-143.5715
21.400000	87.867	-144.0102
21.799999	87.897	-144.8647
22.000000	87.910	-145.2944
22.400000	87.937	-146.1574
22.700001	87.964	-146.8161
23.000000	87.996	-147.4993
23.299999	88.028	-148.2076
23.600000	88.054	-148.9286
24.000000	88.078	-149.8714
24.299999	88.092	-150.5270
24.700001	88.111	-151.3009
25.000000	88.130	-151.8161
25.400000	88.169	-152.4728
25.799999	88.221	-153.1869
26.200001	88.271	-154.0086
26.500000	88.292	-154.6654
26.900000	88.290	-155.4931
27.200001	88.269	-155.9892
27.600000	88.232	-156.4079
28.000000	88.213	-156.5769
28.500000	88.241	-156.6674
29.000000	88.321	-156.9478
29.500000	88.424	-157.5583
30.000000	88.515	-158.4284
30.400000	88.576	-159.2346
30.700001	88.619	-159.8870
31.100000	88.673	-160.8163
31.500000	88.717	-161.7982
32.000000	88.750	-163.0367
32.500000	88.762	-164.1992
33.000000	88.762	-165.2269
33.500000	88.756	-166.1132
34.000000	88.751	-166.8869
34.500000	88.752	-167.6130
35.000000	88.755	-168.3567
35.500000	88.749	-169.1132
36.000000	88.732	-169.8079
36.500000	88.720	-170.4339
37.000000	88.719	-171.1335
37.500000	88.708	-172.0160
38.200001	88.642	-173.2362
38.700001	88.603	-173.7731
39.500000	88.678	-174.7093
40.000000	88.742	-176.0760
40.599998	88.676	-178.2419
41.200001	88.433	-179.5620
41.799999	88.214	-179.3665
42.500000	88.227	-178.5778
43.099998	88.364	-178.7960
43.700001	88.442	-179.6027
44.400002	88.454	179.6788
45.000000	88.469	179.3529
45.500000	88.491	179.0323
46.200001	88.500	178.4306
46.799999	88.479	177.9048
47.500000	88.440	177.3394
48.200001	88.398	176.7945
48.700001	88.367	176.4105
49.400002	88.324	175.8389
50.000000	88.284	175.2781
50.799999	88.223	174.4617
51.500000	88.164	173.7617
52.200001	88.112	173.1309
53.000000	88.074	172.5005
53.799999	88.054	171.9138
54.500000	88.038	171.4355
55.200001	88.024	171.0121
56.000000	88.013	170.5203
57.000000	87.984	169.7549
58.000000	87.903	168.9837
59.000000	87.802	168.4221
60.000000	87.734	167.8732
60.799999	87.690	167.3099
61.500000	87.648	166.8201
62.200001	87.609	166.3952
63.000000	87.577	165.9163
64.000000	87.535	165.2587
65.000000	87.484	164.6877
66.000000	87.437	164.2441
67.000000	87.392	163.8253
68.000000	87.341	163.4165
69.000000	87.283	162.9690
70.000000	87.210	162.4311
71.000000	87.128	161.9049
72.000000	87.055	161.4264
73.000000	86.990	160.9422
74.000000	86.930	160.5075
75.000000	86.884	160.1611
76.199997	86.843	159.7566
77.500000	86.784	159.2939
78.800003	86.697	158.8415
80.000000	86.591	158.4908
81.199997	86.489	158.1995
82.500000	86.399	157.7027
83.800003	86.313	157.1565
85.000000	86.252	156.7379
86.199997	86.194	156.3645
87.500000	86.125	156.0620
88.500000	86.072	155.8455
90.000000	85.977	155.4535
91.199997	85.881	155.1418
92.500000	85.776	154.8939
93.800003	85.697	154.6816
95.000000	85.641	154.4372
96.199997	85.585	154.1497
97.500000	85.510	153.8823
98.800003	85.427	153.7267
100.000000	85.351	153.6315
101.500000	85.263	153.4874
103.000000	85.179	153.3121
104.400002	85.106	153.1628
106.000000	85.022	152.9958
107.500000	84.936	152.8661
109.000000	84.846	152.7312
110.599998	84.743	152.5696
112.000000	84.659	152.4850
113.800003	84.581	152.4050
115.000000	84.538	152.3635
117.199997	84.453	152.4142
118.000000	84.415	152.4412
120.599998	84.250	152.4698
122.000000	84.155	152.4650
124.099998	84.044	152.4189
125.000000	84.009	152.4143
126.500000	83.958	152.4720
128.000000	83.905	152.6260
131.500000	83.752	152.8907
132.000000	83.727	152.8754
134.000000	83.644	152.8084
136.000000	83.607	152.7231
138.000000	83.578	152.7761
140.000000	83.521	152.9423
143.000000	83.383	153.2435
145.000000	83.306	153.3752
147.500000	83.239	153.5272
150.000000	83.174	153.8983
152.500000	83.141	154.4859
155.000000	83.132	154.7869
157.500000	83.098	154.9021
160.000000	83.040	154.8437
162.500000	82.993	154.9199
165.000000	82.999	154.8444
167.500000	82.961	154.7783
170.000000	82.898	154.9506
172.500000	82.831	155.0267
175.000000	82.768	155.0701
177.500000	82.713	155.2619
180.000000	82.655	155.5454
182.500000	82.586	155.7798
185.000000	82.517	155.9550
187.500000	82.454	156.1165
190.000000	82.398	156.3191
192.500000	82.362	156.5245
195.000000	82.342	156.6837
197.500000	82.322	156.8438
200.000000	82.293	157.0160
203.000000	82.259	157.1938
206.000000	82.235	157.3933
209.000000	82.213	157.6265
212.000000	82.176	157.8419
214.000000	82.149	157.9628
218.000000	82.108	158.2095
220.000000	82.092	158.3303
224.000000	82.054	158.5910
227.000000	82.027	158.7997
230.000000	82.004	158.9518
233.000000	81.975	159.1085
236.000000	81.940	159.3705
240.000000	81.894	159.7389
243.000000	81.867	159.9212
247.000000	81.849	160.1324
250.000000	81.832	160.3185
254.000000	81.786	160.5925
258.000000	81.729	160.9272
262.000000	81.674	161.3594
265.000000	81.643	161.8233
269.000000	81.610	162.5746
272.000000	81.589	163.2101
276.000000	81.587	164.2741
280.000000	81.647	165.4668
285.000000	81.841	166.4775
290.000000	82.089	166.5984
295.000000	82.267	165.9131
300.000000	82.337	165.0085
304.000000	82.347	164.4349
307.000000	82.345	164.1064
311.000000	82.335	163.8097
315.000000	82.326	163.6487
320.000000	82.322	163.4849
325.000000	82.317	163.3555
330.000000	82.307	163.2427
335.000000	82.292	163.0791
340.000000	82.278	162.9129
345.000000	82.262	162.7932
350.000000	82.241	162.7457
355.000000	82.222	162.7528
360.000000	82.200	162.7645
365.000000	82.179	162.7888
370.000000	82.173	162.7886
375.000000	82.168	162.7651
382.000000	82.149	162.7859
387.000000	82.134	162.7944
395.000000	82.122	162.7857
400.000000	82.116	162.8300
406.000000	82.106	162.8402
412.000000	82.088	162.8216
418.000000	82.068	162.8402
425.000000	82.065	162.8347
431.000000	82.061	162.8423
437.000000	82.040	162.8414
444.000000	82.014	162.8392
450.000000	82.000	162.9114
455.000000	81.995	162.9695
462.000000	81.993	163.0386
468.000000	81.987	163.1171
475.000000	81.979	163.1991
482.000000	81.975	163.2445
487.000000	81.969	163.2616
494.000000	81.959	163.2709
500.000000	81.946	163.2421
508.000000	81.928	163.1849
515.000000	81.914	163.1679
522.000000	81.902	163.1824
530.000000	81.897	163.2455
538.000000	81.897	163.3313
545.000000	81.881	163.4158
552.000000	81.851	163.4750
560.000000	81.827	163.4961
570.000000	81.810	163.5646
580.000000	81.798	163.6734
590.000000	81.771	163.7750
600.000000	81.746	163.8986
608.000000	81.740	163.9802
615.000000	81.734	164.0582
622.000000	81.724	164.1423
630.000000	81.712	164.2317
640.000000	81.696	164.4088
650.000000	81.678	164.6119
660.000000	81.662	164.7935
670.000000	81.652	165.0120
680.000000	81.645	165.2783
690.000000	81.636	165.4888
700.000000	81.622	165.6227
710.000000	81.611	165.7885
720.000000	81.610	165.9980
730.000000	81.610	166.2036
740.000000	81.608	166.4121
750.000000	81.603	166.6667
762.000000	81.599	167.0422
775.000000	81.607	167.4385
788.000000	81.618	167.8056
800.000000	81.632	168.0647
812.000000	81.650	168.3159
825.000000	81.669	168.5740
838.000000	81.680	168.9079
850.000000	81.698	169.2449
862.000000	81.717	169.5832
875.000000	81.740	169.9119
885.000000	81.764	170.1340
900.000000	81.804	170.4546
912.000000	81.836	170.7182
925.000000	81.873	170.9830
938.000000	81.912	171.2490
950.000000	81.951	171.5109
962.000000	81.988	171.7733
975.000000	82.024	172.0081
988.000000	82.055	172.1783
1000.000000	82.089	172.3045
1015.000000	82.165	172.5076
1030.000000	82.241	172.6791
1044.000000	82.306	172.7498
1060.000000	82.372	172.8264
1075.000000	82.424	172.8855
1090.000000	82.475	172.9307
1106.000000	82.537	172.9669
1120.000000	82.593	172.9911
1138.000000	82.665	172.9628
1150.000000	82.709	172.9156
1172.000000	82.776	172.8543
1180.000000	82.795	172.8378
1206.000000	82.842	172.8000
1220.000000	82.857	172.7969
1241.000000	82.874	172.7929
1250.000000	82.879	172.7748
1265.000000	82.899	172.7112
1280.000000	82.950	172.6302
1315.000000	83.171	172.5083
1320.000000	83.206	172.4990
1340.000000	83.332	172.4776
1360.000000	83.436	172.4929
1380.000000	83.510	172.5491
1400.000000	83.551	172.6032
1430.000000	83.601	172.6619
1450.000000	83.641	172.7166
1475.000000	83.696	172.8015
1500.000000	83.753	172.9187
1525.000000	83.806	173.0781
1550.000000	83.857	173.2665
1575.000000	83.920	173.4693
1600.000000	83.988	173.6889
1625.000000	84.057	173.8911
1650.000000	84.130	174.1069
1675.000000	84.208	174.3606
1700.000000	84.295	174.5767
1725.000000	84.391	174.8104
1750.000000	84.484	175.0826
1775.000000	84.565	175.3540
1800.000000	84.650	175.5877
1825.000000	84.742	175.8262
1850.000000	84.838	176.0800
1875.000000	84.941	176.3075
1900.000000	85.052	176.5228
1925.000000	85.166	176.7708
1950.000000	85.281	177.0254
1975.000000	85.400	177.2836
2000.000000	85.522	177.5460
2030.000000	85.671	177.8243
2060.000000	85.823	178.0817
2090.000000	85.982	178.2808
2120.000000	86.147	178.4376
2140.000000	86.260	178.5210
2180.000000	86.500	178.6275
2200.000000	86.624	178.6591
2240.000000	86.873	178.6785
2270.000000	87.059	178.6465
2300.000000	87.244	178.5686
2330.000000	87.434	178.4298
2360.000000	87.630	178.2324
2400.000000	87.901	177.8615
2430.000000	88.106	177.5054
2470.000000	88.378	176.9276
2500.000000	88.581	176.4051
2540.000000	88.845	175.6017
2580.000000	89.097	174.6749
2620.000000	89.341	173.6160
2650.000000	89.519	172.7278
2690.000000	89.750	171.4178
2720.000000	89.916	170.3499
2760.000000	90.121	168.8280
2800.000000	90.304	167.2161
2850.000000	90.500	165.0759
2900.000000	90.658	162.7903
2950.000000	90.778	160.4200
3000.000000	90.858	157.9672
3040.000000	90.886	155.9423
3070.000000	90.883	154.4232
3110.000000	90.847	152.4526
3150.000000	90.773	150.6051
3200.000000	90.643	148.5655
3250.000000	90.484	146.8720
3300.000000	90.317	145.4930
3350.000000	90.156	144.3272
3400.000000	90.003	143.3193
3450.000000	89.855	142.4455
3500.000000	89.708	141.6974
3550.000000	89.563	141.0975
3600.000000	89.419	140.6518
3650.000000	89.281	140.3485
3700.000000	89.148	140.1702
3750.000000	89.019	140.0757
3820.000000	88.855	140.0925
3870.000000	88.761	140.2049
3950.000000	88.654	140.4724
4000.000000	88.611	140.6685
4060.000000	88.576	140.9200
4120.000000	88.548	141.1658
4180.000000	88.521	141.4057
4250.000000	88.492	141.6434
4310.000000	88.480	141.7651
4370.000000	88.493	141.8120
4440.000000	88.545	141.7606
4500.000000	88.619	141.5810
4550.000000	88.693	141.3322
4620.000000	88.807	140.8446
4680.000000	88.910	140.2756
4750.000000	89.025	139.3886
4820.000000	89.128	138.2417
4870.000000	89.189	137.2634
4940.000000	89.250	135.6987
5000.000000	89.269	134.2024
5080.000000	89.235	132.0445
5150.000000	89.150	130.1024
5220.000000	89.010	128.2086
5300.000000	88.784	126.2227
5380.000000	88.494	124.5210
5450.000000	88.201	123.3298
5520.000000	87.885	122.4930
5600.000000	87.509	122.0221
5700.000000	87.045	122.1300
5800.000000	86.626	122.8705
5900.000000	86.272	124.1420
6000.000000	86.010	125.8193
6080.000000	85.883	127.2845
6150.000000	85.831	128.5667
6220.000000	85.824	129.7933
6300.000000	85.861	131.0503
6400.000000	85.965	132.2801
6500.000000	86.112	133.0297
6600.000000	86.266	133.2887
6700.000000	86.388	133.1311
6800.000000	86.459	132.7086
6900.000000	86.480	132.2420
7000.000000	86.464	131.8966
7100.000000	86.426	131.7355
7200.000000	86.389	131.7697
7300.000000	86.383	131.9197
7400.000000	86.415	132.0801
7500.000000	86.466	132.1912
7620.000000	86.526	132.1788
7750.000000	86.565	131.8410
7880.000000	86.530	131.0328
8000.000000	86.406	129.7269
8120.000000	86.182	127.9330
8250.000000	85.822	125.6791
8380.000000	85.334	123.4542
8500.000000	84.789	121.7834
8620.000000	84.160	120.6738
8750.000000	83.395	120.2353
8850.000000	82.781	120.5010
9000.000000	81.891	121.8166
9120.000000	81.221	123.5797
9250.000000	80.556	126.0306
9380.000000	79.953	128.8123
9500.000000	79.431	131.6283
9620.000000	78.944	134.6474
9750.000000	78.469	138.0728
9880.000000	78.050	141.5936
10000.000000	77.707	144.8950
10150.000000	77.340	149.0561
10300.000000	77.054	153.1838
10440.000000	76.869	156.9013
10600.000000	76.715	160.8749
10750.000000	76.601	164.2497
10900.000000	76.509	167.1896
11060.000000	76.393	169.8810
11200.000000	76.242	172.1140
11380.000000	75.986	175.3398
11500.000000	75.796	177.8665
11720.000000	75.493	-176.7888
11800.000000	75.414	-174.6950
12060.000000	75.284	-167.7672
12200.000000	75.290	-164.1639
12410.000000	75.359	-159.0026
12500.000000	75.392	-156.8372
12650.000000	75.447	-153.1819
12800.000000	75.509	-149.4509
13150.000000	75.733	-140.0108
13200.000000	75.770	-138.5325
13400.000000	75.952	-132.3160
13600.000000	76.244	-125.7493
13800.000000	76.757	-119.1527
14000.000000	77.592	-113.0045
14300.000000	79.526	-106.5019
14500.000000	81.099	-106.1071
14750.000000	82.719	-112.3541
15000.000000	83.272	-123.5532
15250.000000	82.809	-132.3997
15500.000000	82.120	-136.8331
15750.000000	81.676	-140.6682
16000.000000	81.274	-146.1071
16250.000000	80.593	-151.8325
16500.000000	79.592	-155.5733
16750.000000	78.500	-156.5676
17000.000000	77.542	-155.2565
17250.000000	76.879	-152.6734
17500.000000	76.546	-150.0191
17750.000000	76.414	-148.2398
18000.000000	76.325	-147.8017
18250.000000	76.128	-148.6341
18500.000000	75.666	-149.7369
18750.000000	74.958	-148.9443
19000.000000	74.497	-146.4654
19250.000000	74.363	-146.7726
19500.000000	73.779	-149.8346
19750.000000	72.508	-151.9492
20000.000000	71.356	-152.4143
