* Measurement data measured by REW V5.20.7
* Source: Mic in at rear panel (Pink)(Realtek(R) Audio), MICROPHONE (마스), L, volume: 1.000
* Format: 128k Log Swept Sine, 1 sweep at -12.0 dBFS with no timing reference
* Dated: 2022. 5. 13 오후 8:35:46
* REW Settings:
*  C-weighting compensation: Off
*  Target level: 75.0 dB
* Note: 
* Measurement: R
* Smoothing: 1/24 octave
* Frequency Step: 1/48 octave
* Start Frequency: 20.300 Hz
*
* Freq(Hz)	SPL(dB)	Phase(degrees)
20.299999	90.811	-141.4650
20.600000	90.831	-141.9798
20.900000	90.865	-142.8751
21.200001	90.886	-143.6585
21.400000	90.895	-144.1158
21.799999	90.909	-144.9467
22.000000	90.917	-145.3495
22.400000	90.939	-146.1586
22.700001	90.963	-146.7856
23.000000	90.993	-147.4366
23.299999	91.021	-148.0980
23.600000	91.046	-148.7582
24.000000	91.077	-149.6273
24.299999	91.100	-150.2720
24.700001	91.126	-151.1215
25.000000	91.139	-151.7349
25.400000	91.147	-152.4803
25.799999	91.156	-153.1042
26.200001	91.177	-153.6305
26.500000	91.202	-154.0206
26.900000	91.240	-154.6194
27.200001	91.261	-155.1544
27.600000	91.262	-155.9382
28.000000	91.227	-156.6602
28.500000	91.154	-157.2586
29.000000	91.106	-157.5049
29.500000	91.125	-157.6742
30.000000	91.195	-158.1079
30.400000	91.260	-158.7320
30.700001	91.307	-159.3352
31.100000	91.361	-160.2451
31.500000	91.403	-161.2070
32.000000	91.441	-162.4101
32.500000	91.471	-163.5751
33.000000	91.497	-164.6902
33.500000	91.516	-165.7588
34.000000	91.521	-166.7708
34.500000	91.513	-167.6814
35.000000	91.497	-168.4446
35.500000	91.482	-169.0674
36.000000	91.474	-169.6163
36.500000	91.467	-170.1545
37.000000	91.453	-170.7065
37.500000	91.429	-171.2753
38.200001	91.385	-172.1064
38.700001	91.347	-172.6910
39.500000	91.281	-173.5191
40.000000	91.250	-174.0794
40.599998	91.208	-174.9790
41.200001	91.113	-175.9780
41.799999	90.974	-176.5968
42.500000	90.881	-176.6295
43.099998	90.936	-176.6826
43.700001	91.048	-177.3510
44.400002	91.127	-178.7164
45.000000	91.125	-179.8303
45.500000	91.107	179.4483
46.200001	91.083	178.6247
46.799999	91.063	177.9934
47.500000	91.041	177.3546
48.200001	91.032	176.7498
48.700001	91.022	176.2794
49.400002	90.986	175.6016
50.000000	90.936	175.0791
50.799999	90.867	174.4566
51.500000	90.809	173.8992
52.200001	90.754	173.3223
53.000000	90.700	172.6844
53.799999	90.659	172.0725
54.500000	90.628	171.5533
55.200001	90.600	171.0607
56.000000	90.577	170.5020
57.000000	90.543	169.7311
58.000000	90.477	168.9511
59.000000	90.384	168.2872
60.000000	90.295	167.7575
60.799999	90.241	167.3503
61.500000	90.202	166.9346
62.200001	90.159	166.4834
63.000000	90.102	166.0020
64.000000	90.038	165.4802
65.000000	89.995	165.0020
66.000000	89.968	164.4891
67.000000	89.930	163.9075
68.000000	89.869	163.3741
69.000000	89.792	162.9091
70.000000	89.705	162.4388
71.000000	89.614	161.9783
72.000000	89.532	161.5385
73.000000	89.462	161.0825
74.000000	89.403	160.6136
75.000000	89.353	160.1618
76.199997	89.298	159.6737
77.500000	89.230	159.2173
78.800003	89.145	158.8431
80.000000	89.060	158.5095
81.199997	88.961	158.1268
82.500000	88.856	157.7393
83.800003	88.783	157.3074
85.000000	88.725	156.8930
86.199997	88.666	156.5506
87.500000	88.596	156.2108
88.500000	88.533	155.9623
90.000000	88.427	155.6036
91.199997	88.333	155.3018
92.500000	88.233	155.0184
93.800003	88.152	154.7726
95.000000	88.093	154.5471
96.199997	88.040	154.3190
97.500000	87.974	154.0491
98.800003	87.890	153.8178
100.000000	87.808	153.6516
101.500000	87.708	153.4190
103.000000	87.613	153.1932
104.400002	87.537	153.0579
106.000000	87.465	152.9345
107.500000	87.392	152.7967
109.000000	87.306	152.6423
110.599998	87.200	152.4430
112.000000	87.100	152.2967
113.800003	86.990	152.2260
115.000000	86.931	152.2154
117.199997	86.825	152.2432
118.000000	86.781	152.2640
120.599998	86.618	152.3250
122.000000	86.533	152.3287
124.099998	86.430	152.2859
125.000000	86.395	152.2626
126.500000	86.341	152.2693
128.000000	86.286	152.3740
131.500000	86.140	153.0168
132.000000	86.122	153.1057
134.000000	86.052	153.2741
136.000000	85.971	153.3447
138.000000	85.899	153.4266
140.000000	85.831	153.5115
143.000000	85.738	153.5975
145.000000	85.691	153.6500
147.500000	85.635	153.6536
150.000000	85.550	153.6842
152.500000	85.446	153.7877
155.000000	85.354	154.0224
157.500000	85.271	154.3140
160.000000	85.187	154.6178
162.500000	85.135	154.8934
165.000000	85.131	155.1727
167.500000	85.145	155.4173
170.000000	85.121	155.5201
172.500000	85.055	155.4848
175.000000	84.995	155.4403
177.500000	84.954	155.4276
180.000000	84.903	155.4633
182.500000	84.829	155.5463
185.000000	84.746	155.6838
187.500000	84.665	155.8751
190.000000	84.594	156.0991
192.500000	84.539	156.3115
195.000000	84.504	156.5208
197.500000	84.481	156.7152
200.000000	84.455	156.8818
203.000000	84.419	157.0709
206.000000	84.395	157.2638
209.000000	84.380	157.4523
212.000000	84.350	157.6609
214.000000	84.323	157.8474
218.000000	84.273	158.1827
220.000000	84.247	158.2773
224.000000	84.199	158.5178
227.000000	84.177	158.7587
230.000000	84.153	158.9153
233.000000	84.120	159.0487
236.000000	84.088	159.2262
240.000000	84.043	159.4746
243.000000	84.022	159.6521
247.000000	84.010	159.9165
250.000000	83.986	160.1837
254.000000	83.929	160.6162
258.000000	83.870	161.0500
262.000000	83.824	161.4937
265.000000	83.799	161.9479
269.000000	83.776	162.7239
272.000000	83.776	163.3258
276.000000	83.823	164.0594
280.000000	83.909	164.6185
285.000000	84.031	164.7849
290.000000	84.120	164.6039
295.000000	84.164	164.3749
300.000000	84.192	164.2629
304.000000	84.201	164.2247
307.000000	84.210	164.1712
311.000000	84.229	164.0553
315.000000	84.249	163.8980
320.000000	84.262	163.6297
325.000000	84.252	163.3672
330.000000	84.226	163.1393
335.000000	84.199	162.9813
340.000000	84.185	162.8881
345.000000	84.172	162.7820
350.000000	84.152	162.6949
355.000000	84.137	162.6728
360.000000	84.118	162.6716
365.000000	84.096	162.7126
370.000000	84.078	162.7845
375.000000	84.062	162.8463
382.000000	84.041	162.8721
387.000000	84.029	162.9014
395.000000	84.010	162.9615
400.000000	84.001	162.9389
406.000000	83.997	162.8876
412.000000	83.989	162.8622
418.000000	83.962	162.8357
425.000000	83.925	162.8478
431.000000	83.907	162.8704
437.000000	83.896	162.8621
444.000000	83.879	162.8586
450.000000	83.856	162.9399
455.000000	83.833	163.0183
462.000000	83.812	163.0681
468.000000	83.810	163.1394
475.000000	83.810	163.2971
482.000000	83.804	163.4155
487.000000	83.800	163.4158
494.000000	83.794	163.4003
500.000000	83.784	163.3710
508.000000	83.771	163.3259
515.000000	83.758	163.3004
522.000000	83.739	163.2813
530.000000	83.722	163.2957
538.000000	83.708	163.3492
545.000000	83.685	163.4049
552.000000	83.657	163.4677
560.000000	83.629	163.5377
570.000000	83.602	163.6243
580.000000	83.577	163.7469
590.000000	83.546	163.8139
600.000000	83.516	163.8414
608.000000	83.496	163.8956
615.000000	83.478	163.9911
622.000000	83.454	164.1077
630.000000	83.428	164.2327
640.000000	83.406	164.3723
650.000000	83.388	164.5362
660.000000	83.366	164.7141
670.000000	83.347	164.9614
680.000000	83.333	165.1968
690.000000	83.313	165.3777
700.000000	83.292	165.5822
710.000000	83.282	165.8050
720.000000	83.273	166.0252
730.000000	83.263	166.2624
740.000000	83.255	166.4989
750.000000	83.253	166.7345
762.000000	83.251	167.0115
775.000000	83.247	167.3531
788.000000	83.252	167.6985
800.000000	83.264	168.0157
812.000000	83.274	168.3376
825.000000	83.281	168.6698
838.000000	83.293	168.9932
850.000000	83.309	169.3053
862.000000	83.324	169.5811
875.000000	83.342	169.8607
885.000000	83.362	170.1068
900.000000	83.392	170.4894
912.000000	83.421	170.7538
925.000000	83.458	171.0108
938.000000	83.497	171.2558
950.000000	83.533	171.4763
962.000000	83.573	171.6773
975.000000	83.617	171.8697
988.000000	83.656	171.9964
1000.000000	83.691	172.0949
1015.000000	83.742	172.3510
1030.000000	83.799	172.5589
1044.000000	83.857	172.6701
1060.000000	83.915	172.7615
1075.000000	83.962	172.8406
1090.000000	84.011	172.9111
1106.000000	84.070	172.9526
1120.000000	84.123	172.9596
1138.000000	84.189	172.9253
1150.000000	84.230	172.8940
1172.000000	84.291	172.8212
1180.000000	84.310	172.7783
1206.000000	84.357	172.6606
1220.000000	84.370	172.6342
1241.000000	84.382	172.6047
1250.000000	84.390	172.5786
1265.000000	84.418	172.5224
1280.000000	84.471	172.4681
1315.000000	84.670	172.3652
1320.000000	84.703	172.3506
1340.000000	84.825	172.3350
1360.000000	84.923	172.3563
1380.000000	84.988	172.3574
1400.000000	85.033	172.3927
1430.000000	85.077	172.4376
1450.000000	85.104	172.4805
1475.000000	85.147	172.5678
1500.000000	85.195	172.6684
1525.000000	85.245	172.8235
1550.000000	85.296	173.0159
1575.000000	85.351	173.1802
1600.000000	85.408	173.3678
1625.000000	85.467	173.6056
1650.000000	85.536	173.8416
1675.000000	85.605	174.0505
1700.000000	85.674	174.2838
1725.000000	85.754	174.5460
1750.000000	85.836	174.7924
1775.000000	85.918	175.0252
1800.000000	86.005	175.2583
1825.000000	86.097	175.5055
1850.000000	86.190	175.7606
1875.000000	86.285	175.9919
1900.000000	86.383	176.2313
1925.000000	86.487	176.4948
1950.000000	86.595	176.7567
1975.000000	86.703	176.9971
2000.000000	86.814	177.2275
2030.000000	86.958	177.4842
2060.000000	87.112	177.6887
2090.000000	87.272	177.8636
2120.000000	87.434	178.0284
2140.000000	87.545	178.1298
2180.000000	87.772	178.2807
2200.000000	87.887	178.3282
2240.000000	88.120	178.3361
2270.000000	88.301	178.2892
2300.000000	88.484	178.2002
2330.000000	88.672	178.0520
2360.000000	88.865	177.8445
2400.000000	89.126	177.4693
2430.000000	89.324	177.1060
2470.000000	89.587	176.5325
2500.000000	89.784	176.0225
2540.000000	90.043	175.2158
2580.000000	90.294	174.2678
2620.000000	90.535	173.1881
2650.000000	90.710	172.2946
2690.000000	90.935	170.9913
2720.000000	91.093	169.9403
2760.000000	91.287	168.4413
2800.000000	91.462	166.8252
2850.000000	91.654	164.6795
2900.000000	91.813	162.4075
2950.000000	91.939	160.0261
3000.000000	92.020	157.5457
3040.000000	92.046	155.5312
3070.000000	92.042	154.0264
3110.000000	92.003	152.0621
3150.000000	91.927	150.1938
3200.000000	91.792	148.0671
3250.000000	91.627	146.2543
3300.000000	91.446	144.7885
3350.000000	91.269	143.6145
3400.000000	91.102	142.6252
3450.000000	90.939	141.7811
3500.000000	90.775	141.0776
3550.000000	90.614	140.5135
3600.000000	90.458	140.0982
3650.000000	90.312	139.8160
3700.000000	90.172	139.6454
3750.000000	90.044	139.5774
3820.000000	89.883	139.6053
3870.000000	89.783	139.7111
3950.000000	89.665	139.9820
4000.000000	89.614	140.1869
4060.000000	89.570	140.4277
4120.000000	89.537	140.6531
4180.000000	89.508	140.8749
4250.000000	89.479	141.0990
4310.000000	89.464	141.2325
4370.000000	89.469	141.2884
4440.000000	89.510	141.2275
4500.000000	89.571	141.0584
4550.000000	89.636	140.8243
4620.000000	89.740	140.3424
4680.000000	89.837	139.7806
4750.000000	89.948	138.9171
4820.000000	90.047	137.8214
4870.000000	90.104	136.8975
4940.000000	90.156	135.4100
5000.000000	90.168	133.9762
5080.000000	90.132	131.9161
5150.000000	90.050	130.0574
5220.000000	89.918	128.2208
5300.000000	89.703	126.2524
5380.000000	89.424	124.5571
5450.000000	89.139	123.3870
5520.000000	88.830	122.5643
5600.000000	88.464	122.1085
5700.000000	88.016	122.2651
5800.000000	87.615	123.0239
5900.000000	87.284	124.2202
6000.000000	87.045	125.7392
6080.000000	86.932	127.0570
6150.000000	86.888	128.2152
6220.000000	86.885	129.3167
6300.000000	86.921	130.4009
6400.000000	87.005	131.3837
6500.000000	87.110	131.9292
6600.000000	87.208	132.0516
6700.000000	87.271	131.8569
6800.000000	87.291	131.5500
6900.000000	87.271	131.3022
7000.000000	87.220	131.2274
7100.000000	87.156	131.4049
7200.000000	87.102	131.8117
7300.000000	87.086	132.3355
7400.000000	87.113	132.8669
7500.000000	87.168	133.3667
7620.000000	87.250	133.8116
7750.000000	87.328	133.9500
7880.000000	87.349	133.5910
8000.000000	87.289	132.6419
8120.000000	87.143	131.0845
8250.000000	86.879	128.9308
8380.000000	86.490	126.6430
8500.000000	86.027	124.6974
8620.000000	85.468	123.1888
8750.000000	84.766	122.2777
8850.000000	84.184	122.1647
9000.000000	83.318	122.9500
9120.000000	82.648	124.3108
9250.000000	81.960	126.3836
9380.000000	81.330	128.8853
9500.000000	80.785	131.5038
9620.000000	80.283	134.3932
9750.000000	79.798	137.6920
9880.000000	79.366	141.0877
10000.000000	79.012	144.2705
10150.000000	78.637	148.2808
10300.000000	78.338	152.2695
10440.000000	78.127	155.8760
10600.000000	77.941	159.8062
10750.000000	77.802	163.1641
10900.000000	77.689	166.0873
11060.000000	77.556	168.7212
11200.000000	77.401	170.8832
11380.000000	77.131	174.0062
11500.000000	76.926	176.4654
11720.000000	76.599	-178.3244
11800.000000	76.510	-176.2775
12060.000000	76.358	-169.4187
12200.000000	76.353	-165.8104
12410.000000	76.390	-160.6829
12500.000000	76.413	-158.5409
12650.000000	76.455	-154.9706
12800.000000	76.504	-151.3391
13150.000000	76.673	-142.0395
13200.000000	76.701	-140.5778
13400.000000	76.842	-134.4172
13600.000000	77.084	-127.8373
13800.000000	77.537	-121.1906
14000.000000	78.301	-114.9766
14300.000000	80.112	-108.2377
14500.000000	81.600	-107.4387
14750.000000	83.163	-112.7807
15000.000000	83.720	-122.9845
15250.000000	83.277	-131.1597
15500.000000	82.577	-134.8256
15750.000000	82.152	-137.2850
16000.000000	81.911	-141.1888
16250.000000	81.534	-146.3204
16500.000000	80.837	-150.9217
16750.000000	79.907	-153.4884
17000.000000	78.964	-153.4970
17250.000000	78.238	-151.7362
17500.000000	77.822	-149.5006
17750.000000	77.620	-147.8339
18000.000000	77.494	-147.3635
18250.000000	77.282	-148.0963
18500.000000	76.815	-149.1783
18750.000000	76.122	-148.4907
19000.000000	75.702	-146.1432
19250.000000	75.603	-146.6573
19500.000000	75.034	-150.1043
19750.000000	73.784	-152.6479
20000.000000	72.673	-153.4045
