* Measurement data measured by REW V5.20.7
* Source: ???(Realtek High Definition Audi, no input selected, L, volume: no control
* Format: 128k Log Swept Sine, 1 sweep at -12.0 dBFS with no timing reference
* Dated: 13-Oct-2022 23:29:04
* REW Settings:
*  C-weighting compensation: Off
*  Target level: 75.0 dB
* Note: ; 
* Measurement: Shuoer S12 R
* Smoothing: 1/24 octave
* Frequency Step: 1/48 octave
* Start Frequency: 20.300 Hz
*
* Freq(Hz)	SPL(dB)	Phase(degrees)
20.299999	76.256	-148.5621
20.600000	76.247	-148.7077
20.900000	76.238	-148.9470
21.200001	76.245	-149.1352
21.400000	76.258	-149.2665
21.799999	76.293	-149.5906
22.000000	76.312	-149.7899
22.400000	76.349	-150.2280
22.700001	76.385	-150.5898
23.000000	76.434	-151.0292
23.299999	76.491	-151.6219
23.600000	76.546	-152.4149
24.000000	76.589	-153.7728
24.299999	76.579	-154.8961
24.700001	76.497	-156.2503
25.000000	76.401	-156.9379
25.400000	76.273	-157.2554
25.799999	76.218	-157.0345
26.200001	76.274	-156.7551
26.500000	76.369	-156.8270
26.900000	76.509	-157.4911
27.200001	76.579	-158.3361
27.600000	76.596	-159.6069
28.000000	76.541	-160.6181
28.500000	76.453	-161.2283
29.000000	76.432	-161.4550
29.500000	76.472	-161.8746
30.000000	76.504	-162.6397
30.400000	76.498	-163.2822
30.700001	76.485	-163.6744
31.100000	76.478	-164.0913
31.500000	76.492	-164.5198
32.000000	76.518	-165.2616
32.500000	76.514	-166.1794
33.000000	76.476	-167.0200
33.500000	76.433	-167.6943
34.000000	76.401	-168.3472
34.500000	76.356	-169.0590
35.000000	76.282	-169.6650
35.500000	76.205	-169.9778
36.000000	76.172	-170.1189
36.500000	76.185	-170.4280
37.000000	76.198	-171.0792
37.500000	76.167	-171.8683
38.200001	76.078	-172.5859
38.700001	76.047	-172.7583
39.500000	76.108	-173.2043
40.000000	76.165	-173.8893
40.599998	76.187	-174.9749
41.200001	76.142	-175.8850
41.799999	76.080	-176.2800
42.500000	76.082	-176.2727
43.099998	76.160	-176.4966
43.700001	76.223	-177.2670
44.400002	76.180	-178.3736
45.000000	76.063	-178.8124
45.500000	75.979	-178.7014
46.200001	75.952	-178.3035
46.799999	75.999	-178.2454
47.500000	76.064	-178.7027
48.200001	76.094	-179.5554
48.700001	76.084	179.7351
49.400002	76.031	178.7886
50.000000	75.964	178.1212
50.799999	75.872	177.4254
51.500000	75.799	176.8941
52.200001	75.723	176.3823
53.000000	75.625	175.9484
53.799999	75.553	175.8140
54.500000	75.551	175.6752
55.200001	75.574	175.1661
56.000000	75.549	174.3111
57.000000	75.455	173.7066
58.000000	75.412	173.7316
59.000000	75.451	173.7291
60.000000	75.489	173.2737
60.799999	75.456	172.8016
61.500000	75.393	172.5722
62.200001	75.333	172.4744
63.000000	75.275	172.2816
64.000000	75.193	171.8826
65.000000	75.124	171.4302
66.000000	75.075	170.7232
67.000000	75.016	169.9637
68.000000	74.973	169.3678
69.000000	74.950	168.8677
70.000000	74.944	168.4708
71.000000	74.940	168.0289
72.000000	74.904	167.6323
73.000000	74.855	167.4382
74.000000	74.823	167.3035
75.000000	74.792	166.9987
76.199997	74.703	166.6445
77.500000	74.627	166.7434
78.800003	74.611	166.4229
80.000000	74.522	165.9070
81.199997	74.423	165.6959
82.500000	74.348	165.3563
83.800003	74.265	164.9233
85.000000	74.200	164.6108
86.199997	74.149	164.3201
87.500000	74.091	164.1208
88.500000	74.053	164.1526
90.000000	74.044	164.2256
91.199997	74.036	163.9459
92.500000	73.974	163.4918
93.800003	73.871	163.1873
95.000000	73.792	163.1424
96.199997	73.755	162.9730
97.500000	73.711	162.5554
98.800003	73.660	162.1342
100.000000	73.613	161.7061
101.500000	73.530	161.2852
103.000000	73.459	161.2506
104.400002	73.429	161.3465
106.000000	73.413	161.3650
107.500000	73.363	161.1805
109.000000	73.263	161.0966
110.599998	73.167	161.1744
112.000000	73.119	161.1043
113.800003	73.071	160.7996
115.000000	73.046	160.5716
117.199997	72.980	160.1745
118.000000	72.943	160.0985
120.599998	72.808	160.1423
122.000000	72.746	160.2094
124.099998	72.680	160.1078
125.000000	72.655	159.9418
126.500000	72.595	159.5939
128.000000	72.522	159.3776
131.500000	72.424	159.2781
132.000000	72.416	159.2584
134.000000	72.379	159.1596
136.000000	72.322	159.0988
138.000000	72.252	159.1522
140.000000	72.182	159.1603
143.000000	72.065	159.1414
145.000000	71.995	159.1294
147.500000	71.915	159.1126
150.000000	71.851	159.1696
152.500000	71.799	159.1965
155.000000	71.734	159.2375
157.500000	71.657	159.1891
160.000000	71.578	159.1990
162.500000	71.536	159.2096
165.000000	71.488	159.1580
167.500000	71.411	159.2002
170.000000	71.329	159.2637
172.500000	71.253	159.2711
175.000000	71.187	159.3059
177.500000	71.126	159.3316
180.000000	71.061	159.3714
182.500000	70.995	159.4468
185.000000	70.929	159.5468
187.500000	70.868	159.6334
190.000000	70.813	159.6931
192.500000	70.760	159.7582
195.000000	70.705	159.8555
197.500000	70.648	159.9648
200.000000	70.590	160.0837
203.000000	70.525	160.2386
206.000000	70.459	160.3818
209.000000	70.387	160.5247
212.000000	70.316	160.6692
214.000000	70.276	160.7422
218.000000	70.197	160.8723
220.000000	70.155	160.9796
224.000000	70.074	161.2558
227.000000	70.017	161.4528
230.000000	69.955	161.6240
233.000000	69.893	161.7821
236.000000	69.835	161.9378
240.000000	69.759	162.1944
243.000000	69.705	162.3991
247.000000	69.637	162.6788
250.000000	69.586	162.9031
254.000000	69.515	163.1631
258.000000	69.447	163.4252
262.000000	69.382	163.7570
265.000000	69.335	164.0063
269.000000	69.270	164.3051
272.000000	69.220	164.5216
276.000000	69.161	164.8251
280.000000	69.110	165.1462
285.000000	69.046	165.6044
290.000000	68.982	166.0387
295.000000	68.918	166.4438
300.000000	68.859	166.8419
304.000000	68.820	167.1920
307.000000	68.789	167.4527
311.000000	68.743	167.7651
315.000000	68.701	168.0724
320.000000	68.653	168.4714
325.000000	68.606	168.8819
330.000000	68.557	169.2806
335.000000	68.510	169.6924
340.000000	68.465	170.0837
345.000000	68.424	170.4694
350.000000	68.384	170.8697
355.000000	68.340	171.2728
360.000000	68.298	171.6458
365.000000	68.257	171.9949
370.000000	68.215	172.3577
375.000000	68.175	172.7343
382.000000	68.124	173.2868
387.000000	68.087	173.6757
395.000000	68.034	174.3171
400.000000	68.004	174.7087
406.000000	67.963	175.1579
412.000000	67.921	175.6198
418.000000	67.883	176.1256
425.000000	67.839	176.7433
431.000000	67.805	177.2318
437.000000	67.775	177.6866
444.000000	67.746	178.2003
450.000000	67.718	178.6478
455.000000	67.692	179.0484
462.000000	67.659	179.5987
468.000000	67.632	-179.9754
475.000000	67.598	-179.4394
482.000000	67.569	-178.8242
487.000000	67.552	-178.3902
494.000000	67.529	-177.8484
500.000000	67.511	-177.3974
508.000000	67.491	-176.7382
515.000000	67.470	-176.1353
522.000000	67.448	-175.5737
530.000000	67.422	-174.9662
538.000000	67.404	-174.3329
545.000000	67.390	-173.7743
552.000000	67.372	-173.2184
560.000000	67.353	-172.5608
570.000000	67.333	-171.7604
580.000000	67.322	-170.9880
590.000000	67.311	-170.2222
600.000000	67.303	-169.4888
608.000000	67.296	-168.8661
615.000000	67.289	-168.2925
622.000000	67.284	-167.7121
630.000000	67.278	-167.0544
640.000000	67.276	-166.2937
650.000000	67.276	-165.5302
660.000000	67.283	-164.7298
670.000000	67.290	-163.9524
680.000000	67.296	-163.1896
690.000000	67.304	-162.4195
700.000000	67.316	-161.6297
710.000000	67.329	-160.8642
720.000000	67.343	-160.1136
730.000000	67.358	-159.3689
740.000000	67.374	-158.6082
750.000000	67.396	-157.8305
762.000000	67.423	-156.8695
775.000000	67.447	-155.8748
788.000000	67.482	-154.9115
800.000000	67.518	-154.0059
812.000000	67.560	-153.1027
825.000000	67.608	-152.1396
838.000000	67.657	-151.1839
850.000000	67.705	-150.3380
862.000000	67.756	-149.5019
875.000000	67.813	-148.5966
885.000000	67.858	-147.8909
900.000000	67.934	-146.8110
912.000000	67.999	-145.9896
925.000000	68.071	-145.1878
938.000000	68.146	-144.4118
950.000000	68.218	-143.6646
962.000000	68.293	-142.9277
975.000000	68.376	-142.1674
988.000000	68.463	-141.4335
1000.000000	68.546	-140.7904
1015.000000	68.649	-140.0283
1030.000000	68.747	-139.2705
1044.000000	68.840	-138.5821
1060.000000	68.949	-137.8763
1075.000000	69.050	-137.2697
1090.000000	69.148	-136.6801
1106.000000	69.253	-136.0503
1120.000000	69.343	-135.5334
1138.000000	69.457	-134.9323
1150.000000	69.533	-134.5508
1172.000000	69.674	-133.8721
1180.000000	69.726	-133.6379
1206.000000	69.894	-132.9227
1220.000000	69.988	-132.5558
1241.000000	70.135	-132.0088
1250.000000	70.200	-131.7839
1265.000000	70.307	-131.4180
1280.000000	70.413	-131.0640
1315.000000	70.658	-130.2648
1320.000000	70.694	-130.1518
1340.000000	70.835	-129.7050
1360.000000	70.977	-129.2725
1380.000000	71.123	-128.8676
1400.000000	71.271	-128.4722
1430.000000	71.500	-127.8527
1450.000000	71.653	-127.4312
1475.000000	71.842	-126.9245
1500.000000	72.034	-126.4284
1525.000000	72.226	-125.9492
1550.000000	72.417	-125.4722
1575.000000	72.609	-124.9901
1600.000000	72.802	-124.5380
1625.000000	72.997	-124.1335
1650.000000	73.198	-123.7710
1675.000000	73.406	-123.4369
1700.000000	73.619	-123.1237
1725.000000	73.841	-122.8570
1750.000000	74.074	-122.6438
1775.000000	74.313	-122.4610
1800.000000	74.558	-122.3412
1825.000000	74.812	-122.3055
1850.000000	75.075	-122.3448
1875.000000	75.345	-122.4844
1900.000000	75.619	-122.7360
1925.000000	75.894	-123.0807
1950.000000	76.170	-123.5094
1975.000000	76.448	-124.0418
2000.000000	76.726	-124.6950
2030.000000	77.059	-125.6637
2060.000000	77.393	-126.8439
2090.000000	77.725	-128.2527
2120.000000	78.048	-129.9154
2140.000000	78.257	-131.1741
2180.000000	78.651	-134.0865
2200.000000	78.829	-135.7556
2240.000000	79.130	-139.5831
2270.000000	79.287	-142.9023
2300.000000	79.354	-146.5966
2330.000000	79.289	-150.5882
2360.000000	79.034	-154.4865
2400.000000	78.383	-158.0183
2430.000000	77.807	-158.5916
2470.000000	77.215	-157.3232
2500.000000	76.964	-155.9693
2540.000000	76.807	-154.6269
2580.000000	76.756	-154.0337
2620.000000	76.757	-154.1282
2650.000000	76.753	-154.5993
2690.000000	76.676	-155.5369
2720.000000	76.541	-156.1292
2760.000000	76.289	-156.2027
2800.000000	76.051	-155.1425
2850.000000	75.966	-152.7114
2900.000000	76.194	-150.6816
2950.000000	76.551	-150.3533
3000.000000	76.826	-151.4876
3040.000000	76.937	-152.8345
3070.000000	76.963	-153.8637
3110.000000	76.943	-155.1156
3150.000000	76.881	-156.1618
3200.000000	76.768	-157.1742
3250.000000	76.635	-157.8898
3300.000000	76.494	-158.3176
3350.000000	76.355	-158.5020
3400.000000	76.222	-158.4934
3450.000000	76.100	-158.3280
3500.000000	75.990	-158.0458
3550.000000	75.894	-157.6611
3600.000000	75.813	-157.1967
3650.000000	75.749	-156.6778
3700.000000	75.699	-156.1162
3750.000000	75.666	-155.5056
3820.000000	75.651	-154.6034
3870.000000	75.665	-153.9525
3950.000000	75.733	-152.9662
4000.000000	75.803	-152.4109
4060.000000	75.920	-151.9007
4120.000000	76.068	-151.7065
4180.000000	76.229	-151.9915
4250.000000	76.375	-153.1460
4310.000000	76.362	-154.8026
4370.000000	76.114	-156.1502
4440.000000	75.656	-155.2500
4500.000000	75.488	-152.5343
4550.000000	75.608	-150.3546
4620.000000	75.996	-148.7874
4680.000000	76.372	-148.9712
4750.000000	76.737	-150.8771
4820.000000	76.866	-154.3608
4870.000000	76.721	-157.2031
4940.000000	76.150	-160.3836
5000.000000	75.302	-161.0486
5080.000000	73.900	-154.9104
5150.000000	73.552	-144.4213
5220.000000	74.257	-136.3398
5300.000000	75.222	-132.5234
5380.000000	75.947	-131.7602
5450.000000	76.437	-131.9115
5520.000000	76.847	-132.3040
5600.000000	77.261	-132.9339
5700.000000	77.722	-134.0001
5800.000000	78.125	-135.3809
5900.000000	78.477	-137.0231
6000.000000	78.782	-138.8586
6080.000000	78.989	-140.4423
6150.000000	79.142	-141.9054
6220.000000	79.267	-143.3858
6300.000000	79.381	-145.0094
6400.000000	79.490	-147.0105
6500.000000	79.523	-148.7594
6600.000000	79.568	-149.5985
6700.000000	79.789	-150.1148
6800.000000	80.135	-151.4642
6900.000000	80.491	-153.7043
7000.000000	80.856	-156.5511
7100.000000	81.229	-160.3881
7200.000000	81.489	-165.5456
7300.000000	81.530	-171.2288
7400.000000	81.457	-176.5736
7500.000000	81.380	177.4694
7620.000000	81.001	168.3253
7750.000000	79.756	159.4616
7880.000000	77.902	158.4447
8000.000000	76.906	162.0453
8120.000000	76.658	162.2697
8250.000000	76.091	159.6583
8380.000000	75.235	158.8954
8500.000000	74.572	158.6932
8620.000000	73.838	158.1755
8750.000000	72.889	159.1900
8850.000000	72.240	161.2023
9000.000000	71.549	164.5119
9120.000000	71.147	166.7029
9250.000000	70.769	168.5960
9380.000000	70.406	170.0949
9500.000000	70.050	171.2533
9620.000000	69.656	172.3445
9750.000000	69.150	173.7049
9880.000000	68.520	176.1898
10000.000000	67.966	-179.4269
10150.000000	67.765	-172.2260
10300.000000	68.131	-166.5879
10440.000000	68.613	-163.7640
10600.000000	69.135	-162.4220
10750.000000	69.581	-162.5519
10900.000000	69.921	-163.9774
11060.000000	70.117	-166.3052
11200.000000	70.198	-168.6302
11380.000000	70.172	-172.4431
11500.000000	69.995	-175.3221
11720.000000	69.343	-179.5300
11800.000000	69.057	179.4827
12060.000000	68.141	176.9427
12200.000000	67.564	175.3549
12410.000000	66.287	175.0809
12500.000000	65.636	176.9603
12650.000000	64.736	-177.1009
12800.000000	64.383	-169.5834
13150.000000	65.266	-155.7100
13200.000000	65.488	-154.3762
13400.000000	66.497	-150.5473
13600.000000	67.642	-148.9617
13800.000000	68.910	-149.1666
14000.000000	70.353	-150.9720
14300.000000	72.746	-159.2497
14500.000000	74.048	-170.6983
14750.000000	74.638	169.7852
15000.000000	73.891	152.0673
15250.000000	72.544	141.5745
15500.000000	71.470	135.3112
15750.000000	70.745	129.5364
16000.000000	70.169	123.5095
16250.000000	69.710	117.0363
16500.000000	69.310	109.2596
16750.000000	68.776	99.7829
17000.000000	67.918	89.8114
17250.000000	66.715	80.9212
17500.000000	65.248	73.7428
17750.000000	63.645	68.4376
18000.000000	62.093	64.9126
18250.000000	60.784	62.4201
18500.000000	59.855	59.9043
18750.000000	59.264	56.3225
19000.000000	58.932	50.6833
19250.000000	58.722	42.3629
19500.000000	58.428	31.4476
19750.000000	57.825	19.7460
20000.000000	57.163	12.3396
