* Measurement data measured by REW V5.20.13
* Source: EXCL: Mic in at rear panel (Pink)(Realtek(R) Audio), MICROPHONE (마스), R, volume: 1.000
* Format: 256k Log Swept Sine, 1 sweep at -12.0 dBFS with no timing reference
* Dated: 2023. 2. 14 오후 9:32:15
* REW Settings:
*  C-weighting compensation: Off
*  Target level: 75.0 dB
* Note: 
* Measurement: R_10
* Smoothing: 1/24 octave
* Frequency Step: 1/48 octave
* Start Frequency: 20.300 Hz
*
* Freq(Hz)	SPL(dB)	Phase(degrees)
20.299999	98.025	179.3355
20.600000	98.018	179.1754
20.900000	98.004	178.8929
21.200001	97.988	178.6293
21.400000	97.977	178.4537
21.799999	97.951	178.0735
22.000000	97.936	177.8615
22.400000	97.901	177.4035
22.700001	97.872	177.0426
23.000000	97.842	176.6747
23.299999	97.813	176.3022
23.600000	97.786	175.9240
24.000000	97.755	175.4098
24.299999	97.734	175.0190
24.700001	97.711	174.5002
25.000000	97.695	174.1216
25.400000	97.676	173.6384
25.799999	97.661	173.1802
26.200001	97.648	172.7404
26.500000	97.638	172.4201
26.900000	97.622	172.0073
27.200001	97.607	171.7125
27.600000	97.583	171.3432
28.000000	97.556	170.9998
28.500000	97.520	170.5954
29.000000	97.479	170.2088
29.500000	97.435	169.8421
30.000000	97.390	169.4955
30.400000	97.356	169.2186
30.700001	97.332	169.0000
31.100000	97.301	168.6836
31.500000	97.268	168.3417
32.000000	97.223	167.9026
32.500000	97.174	167.4839
33.000000	97.130	167.0975
33.500000	97.093	166.7291
34.000000	97.063	166.3620
34.500000	97.033	165.9970
35.000000	97.001	165.6469
35.500000	96.970	165.3205
36.000000	96.939	165.0150
36.500000	96.909	164.7207
37.000000	96.876	164.4301
37.500000	96.840	164.1437
38.200001	96.782	163.7633
38.700001	96.738	163.5116
39.500000	96.667	163.1211
40.000000	96.625	162.8627
40.599998	96.572	162.5322
41.200001	96.517	162.2034
41.799999	96.462	161.9058
42.500000	96.406	161.5923
43.099998	96.366	161.3112
43.700001	96.324	161.0155
44.400002	96.270	160.7250
45.000000	96.228	160.5610
45.500000	96.202	160.4414
46.200001	96.176	160.2078
46.799999	96.148	159.9346
47.500000	96.103	159.6055
48.200001	96.053	159.3073
48.700001	96.015	159.1087
49.400002	95.961	158.8486
50.000000	95.916	158.6405
50.799999	95.857	158.3595
51.500000	95.806	158.1075
52.200001	95.753	157.8743
53.000000	95.696	157.6322
53.799999	95.641	157.3896
54.500000	95.592	157.1784
55.200001	95.542	156.9847
56.000000	95.486	156.7869
57.000000	95.418	156.5503
58.000000	95.350	156.3287
59.000000	95.282	156.1244
60.000000	95.211	155.9118
60.799999	95.153	155.7528
61.500000	95.103	155.6207
62.200001	95.054	155.4915
63.000000	94.999	155.3647
64.000000	94.938	155.2130
65.000000	94.878	155.0096
66.000000	94.811	154.8207
67.000000	94.747	154.6731
68.000000	94.685	154.5229
69.000000	94.620	154.3871
70.000000	94.557	154.2637
71.000000	94.495	154.1416
72.000000	94.434	154.0211
73.000000	94.372	153.9028
74.000000	94.311	153.8018
75.000000	94.251	153.7201
76.199997	94.181	153.6386
77.500000	94.109	153.5575
78.800003	94.035	153.4710
80.000000	93.967	153.4001
81.199997	93.901	153.3096
82.500000	93.827	153.2152
83.800003	93.756	153.1306
85.000000	93.690	153.0778
86.199997	93.630	153.0549
87.500000	93.569	153.0263
88.500000	93.521	153.0042
90.000000	93.449	152.9582
91.199997	93.387	152.9238
92.500000	93.322	152.9108
93.800003	93.261	152.8920
95.000000	93.204	152.8691
96.199997	93.147	152.8633
97.500000	93.088	152.8708
98.800003	93.030	152.8717
100.000000	92.976	152.8631
101.500000	92.907	152.8632
103.000000	92.841	152.8778
104.400002	92.782	152.9061
106.000000	92.716	152.9566
107.500000	92.655	153.0164
109.000000	92.595	153.0808
110.599998	92.533	153.1298
112.000000	92.480	153.1588
113.800003	92.415	153.2112
115.000000	92.371	153.2770
117.199997	92.287	153.5033
118.000000	92.257	153.6136
120.599998	92.181	153.8082
122.000000	92.130	153.7438
124.099998	92.044	153.7234
125.000000	92.012	153.7489
126.500000	91.964	153.8092
128.000000	91.918	153.8813
131.500000	91.808	154.0781
132.000000	91.793	154.1076
134.000000	91.730	154.2280
136.000000	91.666	154.3674
138.000000	91.605	154.5179
140.000000	91.547	154.6551
143.000000	91.464	154.8570
145.000000	91.410	155.0083
147.500000	91.343	155.1952
150.000000	91.273	155.3482
152.500000	91.204	155.5291
155.000000	91.143	155.7264
157.500000	91.080	155.9241
160.000000	91.017	156.1456
162.500000	90.956	156.3629
165.000000	90.896	156.5638
167.500000	90.838	156.7576
170.000000	90.780	156.9460
172.500000	90.723	157.1504
175.000000	90.668	157.3779
177.500000	90.613	157.6105
180.000000	90.556	157.8469
182.500000	90.499	158.0695
185.000000	90.441	158.2830
187.500000	90.387	158.5178
190.000000	90.335	158.7546
192.500000	90.279	158.9931
195.000000	90.223	159.2641
197.500000	90.173	159.5489
200.000000	90.125	159.8405
203.000000	90.069	160.2239
206.000000	90.015	160.6376
209.000000	89.968	161.0842
212.000000	89.928	161.5969
214.000000	89.907	161.9676
218.000000	89.886	162.6941
220.000000	89.889	163.0095
224.000000	89.915	163.5220
227.000000	89.939	163.7810
230.000000	89.948	163.9021
233.000000	89.946	163.9235
236.000000	89.938	163.9129
240.000000	89.911	163.9383
243.000000	89.878	164.0025
247.000000	89.829	164.1594
250.000000	89.789	164.3136
254.000000	89.734	164.5082
258.000000	89.681	164.7208
262.000000	89.630	164.9260
265.000000	89.592	165.0708
269.000000	89.546	165.3259
272.000000	89.517	165.5608
276.000000	89.478	165.8780
280.000000	89.440	166.1594
285.000000	89.396	166.4630
290.000000	89.353	166.8045
295.000000	89.313	167.1707
300.000000	89.273	167.5544
304.000000	89.245	167.8347
307.000000	89.222	168.0365
311.000000	89.192	168.3174
315.000000	89.162	168.6010
320.000000	89.131	168.9707
325.000000	89.105	169.3463
330.000000	89.080	169.7204
335.000000	89.053	170.0807
340.000000	89.022	170.4120
345.000000	88.990	170.7464
350.000000	88.959	171.0837
355.000000	88.931	171.4181
360.000000	88.902	171.7562
365.000000	88.871	172.1022
370.000000	88.840	172.4542
375.000000	88.810	172.8092
382.000000	88.771	173.2899
387.000000	88.744	173.6236
395.000000	88.694	174.1621
400.000000	88.665	174.4860
406.000000	88.634	174.8907
412.000000	88.603	175.3069
418.000000	88.573	175.6957
425.000000	88.536	176.1539
431.000000	88.504	176.5585
437.000000	88.471	176.9642
444.000000	88.440	177.4476
450.000000	88.414	177.8841
455.000000	88.392	178.2673
462.000000	88.365	178.8298
468.000000	88.343	179.3458
475.000000	88.319	179.9523
482.000000	88.303	-179.4308
487.000000	88.300	-178.9814
494.000000	88.306	-178.3795
500.000000	88.318	-177.9225
508.000000	88.339	-177.4230
515.000000	88.353	-177.0624
522.000000	88.360	-176.7304
530.000000	88.355	-176.3743
538.000000	88.342	-176.0153
545.000000	88.330	-175.6650
552.000000	88.319	-175.2889
560.000000	88.303	-174.8500
570.000000	88.281	-174.2971
580.000000	88.260	-173.7357
590.000000	88.242	-173.1334
600.000000	88.224	-172.5269
608.000000	88.211	-172.0266
615.000000	88.199	-171.5893
622.000000	88.186	-171.1593
630.000000	88.173	-170.6638
640.000000	88.160	-170.0222
650.000000	88.149	-169.3507
660.000000	88.138	-168.6868
670.000000	88.127	-168.0275
680.000000	88.117	-167.3588
690.000000	88.108	-166.6885
700.000000	88.102	-166.0038
710.000000	88.095	-165.3080
720.000000	88.091	-164.5922
730.000000	88.091	-163.8761
740.000000	88.094	-163.1553
750.000000	88.095	-162.4181
762.000000	88.100	-161.5273
775.000000	88.112	-160.5594
788.000000	88.129	-159.5775
800.000000	88.145	-158.6497
812.000000	88.168	-157.7119
825.000000	88.199	-156.6860
838.000000	88.239	-155.6542
850.000000	88.284	-154.6800
862.000000	88.340	-153.6880
875.000000	88.411	-152.6175
885.000000	88.474	-151.8159
900.000000	88.582	-150.6707
912.000000	88.678	-149.8036
925.000000	88.794	-148.9427
938.000000	88.919	-148.1767
950.000000	89.035	-147.5312
962.000000	89.151	-146.9509
975.000000	89.276	-146.4079
988.000000	89.401	-145.9412
1000.000000	89.514	-145.5595
1015.000000	89.647	-145.1184
1030.000000	89.777	-144.7271
1044.000000	89.895	-144.4083
1060.000000	90.024	-144.0865
1075.000000	90.141	-143.8293
1090.000000	90.259	-143.6037
1106.000000	90.388	-143.3795
1120.000000	90.502	-143.1983
1138.000000	90.644	-143.0015
1150.000000	90.736	-142.8945
1172.000000	90.899	-142.7162
1180.000000	90.956	-142.6565
1206.000000	91.140	-142.4910
1220.000000	91.235	-142.4077
1241.000000	91.375	-142.2875
1250.000000	91.433	-142.2378
1265.000000	91.529	-142.1563
1280.000000	91.624	-142.0813
1315.000000	91.842	-141.9267
1320.000000	91.874	-141.9052
1340.000000	91.999	-141.8203
1360.000000	92.119	-141.7410
1380.000000	92.241	-141.6679
1400.000000	92.369	-141.6028
1430.000000	92.569	-141.5333
1450.000000	92.707	-141.5089
1475.000000	92.884	-141.5239
1500.000000	93.064	-141.5847
1525.000000	93.249	-141.7057
1550.000000	93.437	-141.9078
1575.000000	93.629	-142.1957
1600.000000	93.822	-142.5788
1625.000000	94.015	-143.0800
1650.000000	94.205	-143.7022
1675.000000	94.389	-144.4542
1700.000000	94.563	-145.3414
1725.000000	94.722	-146.3577
1750.000000	94.863	-147.4937
1775.000000	94.983	-148.7354
1800.000000	95.078	-150.0558
1825.000000	95.146	-151.4308
1850.000000	95.185	-152.8300
1875.000000	95.196	-154.2170
1900.000000	95.181	-155.5563
1925.000000	95.140	-156.8208
1950.000000	95.076	-157.9841
1975.000000	94.993	-159.0284
2000.000000	94.897	-159.9370
2030.000000	94.770	-160.8383
2060.000000	94.634	-161.5459
2090.000000	94.497	-162.0705
2120.000000	94.362	-162.4258
2140.000000	94.277	-162.5795
2180.000000	94.118	-162.7096
2200.000000	94.045	-162.7049
2240.000000	93.912	-162.5899
2270.000000	93.826	-162.4274
2300.000000	93.752	-162.2151
2330.000000	93.689	-161.9717
2360.000000	93.637	-161.7032
2400.000000	93.584	-161.3343
2430.000000	93.556	-161.0699
2470.000000	93.532	-160.7322
2500.000000	93.523	-160.4935
2540.000000	93.521	-160.2032
2580.000000	93.527	-159.9549
2620.000000	93.541	-159.7525
2650.000000	93.555	-159.6362
2690.000000	93.578	-159.5281
2720.000000	93.597	-159.4797
2760.000000	93.624	-159.4581
2800.000000	93.653	-159.4920
2850.000000	93.689	-159.6039
2900.000000	93.727	-159.7898
2950.000000	93.764	-160.0595
3000.000000	93.795	-160.4234
3040.000000	93.818	-160.7879
3070.000000	93.833	-161.1034
3110.000000	93.847	-161.5734
3150.000000	93.854	-162.0995
3200.000000	93.851	-162.8384
3250.000000	93.832	-163.6541
3300.000000	93.792	-164.5433
3350.000000	93.731	-165.4853
3400.000000	93.648	-166.4595
3450.000000	93.545	-167.4382
3500.000000	93.423	-168.4206
3550.000000	93.274	-169.3948
3600.000000	93.091	-170.3232
3650.000000	92.873	-171.1702
3700.000000	92.619	-171.8855
3750.000000	92.332	-172.4240
3820.000000	91.877	-172.8011
3870.000000	91.514	-172.7261
3950.000000	90.882	-171.8663
4000.000000	90.471	-170.8008
4060.000000	89.979	-168.9163
4120.000000	89.510	-166.3267
4180.000000	89.092	-163.0261
4250.000000	88.712	-158.3534
4310.000000	88.512	-153.7997
4370.000000	88.447	-148.9572
4440.000000	88.562	-143.2867
4500.000000	88.825	-138.7250
4550.000000	89.147	-135.3294
4620.000000	89.718	-131.4205
4680.000000	90.280	-128.9801
4750.000000	90.966	-127.2589
4820.000000	91.632	-126.7033
4870.000000	92.068	-126.9391
4940.000000	92.596	-127.9644
5000.000000	92.960	-129.2736
5080.000000	93.323	-131.2734
5150.000000	93.554	-133.0078
5220.000000	93.737	-134.6496
5300.000000	93.921	-136.5323
5380.000000	94.074	-138.6518
5450.000000	94.153	-140.7950
5520.000000	94.154	-143.1182
5600.000000	94.042	-145.7308
5700.000000	93.749	-148.4496
5800.000000	93.344	-150.1968
5900.000000	92.897	-150.9124
6000.000000	92.463	-150.7189
6080.000000	92.148	-150.0232
6150.000000	91.905	-149.1022
6220.000000	91.696	-147.9485
6300.000000	91.499	-146.3951
6400.000000	91.321	-144.1732
6500.000000	91.221	-141.7223
6600.000000	91.203	-139.1205
6700.000000	91.271	-136.4456
6800.000000	91.433	-133.7702
6900.000000	91.708	-131.1800
7000.000000	92.096	-128.7504
7100.000000	92.593	-126.5667
7200.000000	93.197	-124.7550
7300.000000	93.914	-123.4973
7400.000000	94.739	-123.0095
7500.000000	95.665	-123.5717
7620.000000	96.870	-126.1509
7750.000000	98.129	-131.9510
7880.000000	99.034	-141.0421
8000.000000	99.381	-151.3462
8120.000000	99.226	-161.5908
8250.000000	98.632	-170.7589
8380.000000	97.842	-177.3741
8500.000000	97.119	178.2433
8620.000000	96.474	174.6734
8750.000000	95.828	171.0244
8850.000000	95.334	168.2600
9000.000000	94.567	164.0713
9120.000000	93.885	160.7363
9250.000000	93.045	157.5082
9380.000000	92.111	155.0900
9500.000000	91.211	153.7688
9620.000000	90.323	153.3103
9750.000000	89.421	153.6401
9880.000000	88.618	154.5862
10000.000000	87.977	155.7847
10150.000000	87.318	157.4147
10300.000000	86.803	158.8625
10440.000000	86.432	159.8383
10600.000000	86.118	160.2778
10750.000000	85.913	159.7545
10900.000000	85.757	157.9412
11060.000000	85.571	154.0313
11200.000000	85.287	148.4198
11380.000000	84.493	137.7165
11500.000000	83.480	128.8866
11720.000000	79.987	118.1993
11800.000000	78.064	122.1424
12060.000000	73.039	177.6108
12200.000000	74.924	-159.0515
12410.000000	77.730	-154.5298
12500.000000	78.451	-157.1202
12650.000000	79.199	-162.4322
12800.000000	79.558	-167.6273
13150.000000	79.604	-177.6142
13200.000000	79.567	-178.8076
13400.000000	79.391	176.7851
13600.000000	79.243	172.6231
13800.000000	79.190	168.1426
14000.000000	79.248	162.6945
14300.000000	79.405	151.1479
14500.000000	79.329	140.4350
14750.000000	78.661	124.8898
15000.000000	77.190	111.3166
15250.000000	75.245	104.1796
15500.000000	73.736	104.2159
15750.000000	73.855	107.0616
16000.000000	75.423	103.7782
16250.000000	76.634	89.4646
16500.000000	76.517	71.8102
16750.000000	75.558	60.1170
17000.000000	74.691	54.6660
17250.000000	74.415	51.9755
17500.000000	74.777	49.2159
17750.000000	75.550	44.0868
18000.000000	76.275	34.7590
18250.000000	76.353	21.8117
18500.000000	75.450	11.5446
18750.000000	74.392	9.0496
19000.000000	74.221	5.8608
19250.000000	73.788	-1.9590
19500.000000	72.610	-7.9043
19750.000000	71.249	-10.0958
20000.000000	70.408	-10.4087
