* Measurement data measured by REW V5.20.13
* Source: EXCL: Mic in at rear panel (Pink)(Realtek(R) Audio), MICROPHONE (마스), R, volume: 1.000
* Format: 256k Log Swept Sine, 1 sweep at -12.0 dBFS with no timing reference
* Dated: 2023. 2. 14 오후 9:25:29
* REW Settings:
*  C-weighting compensation: Off
*  Target level: 75.0 dB
* Note: 
* Measurement: L_KBear 08
* Smoothing: 1/24 octave
* Frequency Step: 1/48 octave
* Start Frequency: 20.300 Hz
*
* Freq(Hz)	SPL(dB)	Phase(degrees)
20.299999	97.255	-177.4698
20.600000	97.239	-177.4078
20.900000	97.217	-177.3097
21.200001	97.223	-177.2821
21.400000	97.232	-177.3661
21.799999	97.235	-177.7727
22.000000	97.216	-178.0457
22.400000	97.134	-178.5204
22.700001	97.053	-178.6628
23.000000	96.986	-178.5907
23.299999	96.958	-178.4364
23.600000	96.972	-178.3751
24.000000	97.036	-178.6816
24.299999	97.083	-179.2657
24.700001	97.105	179.6223
25.000000	97.080	178.7384
25.400000	97.002	177.7430
25.799999	96.908	177.0929
26.200001	96.828	176.7501
26.500000	96.787	176.6218
26.900000	96.756	176.5518
27.200001	96.749	176.5488
27.600000	96.765	176.5788
28.000000	96.813	176.5628
28.500000	96.903	176.2855
29.000000	96.979	175.6125
29.500000	96.995	174.7216
30.000000	96.943	173.9981
30.400000	96.883	173.7117
30.700001	96.847	173.6514
31.100000	96.824	173.6342
31.500000	96.827	173.5200
32.000000	96.829	173.1074
32.500000	96.792	172.5394
33.000000	96.720	172.1283
33.500000	96.657	171.9741
34.000000	96.634	171.8483
34.500000	96.628	171.4820
35.000000	96.594	170.9143
35.500000	96.521	170.4459
36.000000	96.445	170.2558
36.500000	96.405	170.2034
37.000000	96.396	170.0255
37.500000	96.388	169.6482
38.200001	96.351	168.9872
38.700001	96.310	168.4985
39.500000	96.215	167.7021
40.000000	96.133	167.3634
40.599998	96.046	167.2415
41.200001	96.006	167.2052
41.799999	95.989	167.0142
42.500000	95.959	166.7097
43.099998	95.937	166.5383
43.700001	95.930	166.3345
44.400002	95.911	165.9702
45.000000	95.872	165.6969
45.500000	95.835	165.5530
46.200001	95.787	165.3844
46.799999	95.740	165.2485
47.500000	95.685	165.1825
48.200001	95.654	165.1012
48.700001	95.638	164.9204
49.400002	95.595	164.5396
50.000000	95.538	164.2575
50.799999	95.457	164.0583
51.500000	95.399	164.0177
52.200001	95.363	164.0621
53.000000	95.356	164.0677
53.799999	95.357	163.8275
54.500000	95.326	163.4984
55.200001	95.268	163.2958
56.000000	95.209	163.2685
57.000000	95.169	163.1508
58.000000	95.118	162.8547
59.000000	95.062	162.5423
60.000000	94.992	162.1531
60.799999	94.922	161.9987
61.500000	94.878	162.0061
62.200001	94.856	161.9972
63.000000	94.834	161.9064
64.000000	94.795	161.7787
65.000000	94.743	161.7015
66.000000	94.689	161.6755
67.000000	94.637	161.6204
68.000000	94.580	161.4991
69.000000	94.517	161.3451
70.000000	94.454	161.2131
71.000000	94.403	161.0941
72.000000	94.359	160.9503
73.000000	94.319	160.8384
74.000000	94.287	160.7534
75.000000	94.257	160.6393
76.199997	94.208	160.5285
77.500000	94.149	160.5188
78.800003	94.092	160.5152
80.000000	94.032	160.5023
81.199997	93.972	160.4940
82.500000	93.902	160.4550
83.800003	93.835	160.4795
85.000000	93.789	160.4729
86.199997	93.745	160.3880
87.500000	93.689	160.2896
88.500000	93.643	160.2587
90.000000	93.578	160.3329
91.199997	93.547	160.4463
92.500000	93.519	160.4402
93.800003	93.477	160.4316
95.000000	93.437	160.4624
96.199997	93.397	160.4894
97.500000	93.353	160.5114
98.800003	93.304	160.5401
100.000000	93.258	160.5978
101.500000	93.203	160.6974
103.000000	93.148	160.7560
104.400002	93.093	160.8133
106.000000	93.042	160.8599
107.500000	93.000	160.8605
109.000000	92.966	160.8916
110.599998	92.929	160.9656
112.000000	92.895	161.1099
113.800003	92.857	161.2563
115.000000	92.826	161.2581
117.199997	92.763	161.1989
118.000000	92.744	161.1537
120.599998	92.659	161.0871
122.000000	92.614	161.3078
124.099998	92.570	161.6495
125.000000	92.550	161.7493
126.500000	92.515	161.8623
128.000000	92.481	161.9234
131.500000	92.404	162.0664
132.000000	92.393	162.0983
134.000000	92.351	162.2176
136.000000	92.306	162.3235
138.000000	92.263	162.4199
140.000000	92.225	162.5350
143.000000	92.168	162.7060
145.000000	92.128	162.8143
147.500000	92.081	162.9266
150.000000	92.040	163.0665
152.500000	92.004	163.2248
155.000000	91.962	163.4105
157.500000	91.920	163.6094
160.000000	91.878	163.7686
162.500000	91.832	163.9174
165.000000	91.791	164.0995
167.500000	91.755	164.2870
170.000000	91.719	164.4557
172.500000	91.679	164.6151
175.000000	91.640	164.7904
177.500000	91.603	164.9746
180.000000	91.567	165.1480
182.500000	91.531	165.3196
185.000000	91.496	165.4961
187.500000	91.464	165.6666
190.000000	91.432	165.8459
192.500000	91.401	166.0703
195.000000	91.373	166.2986
197.500000	91.343	166.4893
200.000000	91.311	166.6652
203.000000	91.275	166.8661
206.000000	91.242	167.0784
209.000000	91.214	167.2983
212.000000	91.188	167.5317
214.000000	91.172	167.7005
218.000000	91.141	168.0510
220.000000	91.128	168.2270
224.000000	91.107	168.5629
227.000000	91.092	168.7948
230.000000	91.080	168.9727
233.000000	91.069	169.0963
236.000000	91.053	169.2368
240.000000	91.031	169.4623
243.000000	91.017	169.6102
247.000000	90.989	169.7862
250.000000	90.964	169.9312
254.000000	90.938	170.1351
258.000000	90.912	170.3449
262.000000	90.882	170.5547
265.000000	90.861	170.7080
269.000000	90.836	170.9209
272.000000	90.817	171.0947
276.000000	90.792	171.3326
280.000000	90.766	171.5733
285.000000	90.738	171.8776
290.000000	90.714	172.1792
295.000000	90.695	172.5051
300.000000	90.678	172.8395
304.000000	90.668	173.0988
307.000000	90.663	173.2914
311.000000	90.657	173.5443
315.000000	90.652	173.7773
320.000000	90.648	174.0277
325.000000	90.643	174.2563
330.000000	90.638	174.4861
335.000000	90.634	174.7142
340.000000	90.628	174.9303
345.000000	90.618	175.1295
350.000000	90.604	175.3148
355.000000	90.588	175.4956
360.000000	90.572	175.6864
365.000000	90.554	175.8869
370.000000	90.532	176.0894
375.000000	90.508	176.2888
382.000000	90.477	176.5541
387.000000	90.453	176.7673
395.000000	90.415	177.1107
400.000000	90.393	177.3187
406.000000	90.363	177.5725
412.000000	90.334	177.8353
418.000000	90.308	178.1057
425.000000	90.282	178.4015
431.000000	90.260	178.6619
437.000000	90.240	178.9194
444.000000	90.219	179.2266
450.000000	90.203	179.5059
455.000000	90.190	179.7336
462.000000	90.173	-179.9507
468.000000	90.154	-179.6813
475.000000	90.136	-179.3689
482.000000	90.118	-179.0319
487.000000	90.104	-178.7849
494.000000	90.090	-178.4377
500.000000	90.078	-178.1481
508.000000	90.057	-177.7795
515.000000	90.037	-177.4647
522.000000	90.019	-177.1405
530.000000	90.000	-176.7576
538.000000	89.981	-176.3688
545.000000	89.962	-176.0293
552.000000	89.940	-175.6840
560.000000	89.917	-175.2739
570.000000	89.892	-174.7706
580.000000	89.871	-174.2666
590.000000	89.848	-173.7496
600.000000	89.829	-173.2276
608.000000	89.815	-172.8188
615.000000	89.802	-172.4545
622.000000	89.788	-172.0818
630.000000	89.775	-171.6465
640.000000	89.762	-171.0921
650.000000	89.747	-170.5290
660.000000	89.734	-169.9761
670.000000	89.723	-169.4115
680.000000	89.711	-168.8121
690.000000	89.695	-168.2107
700.000000	89.683	-167.6102
710.000000	89.672	-167.0038
720.000000	89.663	-166.3790
730.000000	89.656	-165.7361
740.000000	89.653	-165.0841
750.000000	89.652	-164.4284
762.000000	89.651	-163.6182
775.000000	89.654	-162.7098
788.000000	89.662	-161.7906
800.000000	89.678	-160.9228
812.000000	89.703	-160.0471
825.000000	89.741	-159.1044
838.000000	89.787	-158.1832
850.000000	89.840	-157.3495
862.000000	89.898	-156.5419
875.000000	89.972	-155.7253
885.000000	90.031	-155.1329
900.000000	90.125	-154.3000
912.000000	90.205	-153.6734
925.000000	90.294	-153.0361
938.000000	90.382	-152.4399
950.000000	90.464	-151.9353
962.000000	90.548	-151.4797
975.000000	90.640	-151.0134
988.000000	90.733	-150.5644
1000.000000	90.819	-150.1839
1015.000000	90.921	-149.7625
1030.000000	91.024	-149.3680
1044.000000	91.122	-149.0268
1060.000000	91.230	-148.6823
1075.000000	91.329	-148.4024
1090.000000	91.429	-148.1564
1106.000000	91.540	-147.9154
1120.000000	91.637	-147.7294
1138.000000	91.760	-147.5359
1150.000000	91.840	-147.4312
1172.000000	91.981	-147.2613
1180.000000	92.031	-147.1999
1206.000000	92.189	-147.0290
1220.000000	92.271	-146.9631
1241.000000	92.391	-146.8773
1250.000000	92.441	-146.8368
1265.000000	92.522	-146.7616
1280.000000	92.602	-146.6900
1315.000000	92.785	-146.5401
1320.000000	92.811	-146.5172
1340.000000	92.913	-146.4192
1360.000000	93.011	-146.3252
1380.000000	93.110	-146.2440
1400.000000	93.214	-146.1492
1430.000000	93.377	-146.0033
1450.000000	93.490	-145.9109
1475.000000	93.638	-145.8040
1500.000000	93.794	-145.7390
1525.000000	93.958	-145.7351
1550.000000	94.129	-145.7973
1575.000000	94.306	-145.9457
1600.000000	94.485	-146.1978
1625.000000	94.666	-146.5664
1650.000000	94.846	-147.0612
1675.000000	95.018	-147.6852
1700.000000	95.180	-148.4416
1725.000000	95.327	-149.3286
1750.000000	95.456	-150.3333
1775.000000	95.563	-151.4324
1800.000000	95.647	-152.5946
1825.000000	95.704	-153.7912
1850.000000	95.735	-154.9972
1875.000000	95.740	-156.1768
1900.000000	95.723	-157.2919
1925.000000	95.685	-158.3118
1950.000000	95.629	-159.2236
1975.000000	95.559	-160.0152
2000.000000	95.481	-160.6790
2030.000000	95.381	-161.3124
2060.000000	95.281	-161.7811
2090.000000	95.183	-162.1051
2120.000000	95.090	-162.3036
2140.000000	95.032	-162.3768
2180.000000	94.928	-162.3972
2200.000000	94.881	-162.3522
2240.000000	94.800	-162.1843
2270.000000	94.751	-162.0119
2300.000000	94.714	-161.8154
2330.000000	94.686	-161.6027
2360.000000	94.668	-161.3855
2400.000000	94.657	-161.1058
2430.000000	94.657	-160.9123
2470.000000	94.669	-160.6873
2500.000000	94.684	-160.5461
2540.000000	94.713	-160.3991
2580.000000	94.750	-160.3026
2620.000000	94.794	-160.2647
2650.000000	94.830	-160.2787
2690.000000	94.879	-160.3527
2720.000000	94.916	-160.4469
2760.000000	94.966	-160.6133
2800.000000	95.015	-160.8240
2850.000000	95.077	-161.1724
2900.000000	95.137	-161.6075
2950.000000	95.193	-162.1271
3000.000000	95.244	-162.7384
3040.000000	95.280	-163.2944
3070.000000	95.304	-163.7488
3110.000000	95.330	-164.4032
3150.000000	95.349	-165.1102
3200.000000	95.359	-166.0479
3250.000000	95.354	-167.0388
3300.000000	95.336	-168.0806
3350.000000	95.304	-169.1828
3400.000000	95.256	-170.3433
3450.000000	95.193	-171.5479
3500.000000	95.113	-172.7870
3550.000000	95.014	-174.0515
3600.000000	94.892	-175.3437
3650.000000	94.744	-176.6705
3700.000000	94.564	-178.0363
3750.000000	94.342	-179.4104
3820.000000	93.948	178.7765
3870.000000	93.600	177.6639
3950.000000	92.931	176.4449
4000.000000	92.453	176.1614
4060.000000	91.831	176.4365
4120.000000	91.177	177.5132
4180.000000	90.512	179.5252
4250.000000	89.766	-176.8167
4310.000000	89.206	-172.5504
4370.000000	88.778	-167.3496
4440.000000	88.522	-160.4787
4500.000000	88.560	-154.4154
4550.000000	88.775	-149.6500
4620.000000	89.304	-143.9580
4680.000000	89.900	-140.3175
4750.000000	90.663	-137.7126
4820.000000	91.404	-136.8175
4870.000000	91.874	-137.1019
4940.000000	92.403	-138.4936
5000.000000	92.714	-140.2603
5080.000000	92.918	-142.8047
5150.000000	92.929	-144.6409
5220.000000	92.848	-145.7295
5300.000000	92.745	-145.9897
5380.000000	92.727	-145.6028
5450.000000	92.805	-145.2984
5520.000000	92.933	-145.4527
5600.000000	93.061	-146.3456
5700.000000	93.089	-148.1483
5800.000000	92.938	-149.9016
5900.000000	92.656	-150.9709
6000.000000	92.319	-151.1443
6080.000000	92.051	-150.6662
6150.000000	91.837	-149.8616
6220.000000	91.652	-148.7669
6300.000000	91.483	-147.2383
6400.000000	91.336	-145.0220
6500.000000	91.261	-142.5682
6600.000000	91.262	-139.9386
6700.000000	91.350	-137.1988
6800.000000	91.535	-134.4247
6900.000000	91.836	-131.7003
7000.000000	92.263	-129.1380
7100.000000	92.808	-126.8686
7200.000000	93.464	-125.0668
7300.000000	94.224	-123.8817
7400.000000	95.095	-123.4613
7500.000000	96.084	-124.1195
7620.000000	97.387	-127.0623
7750.000000	98.726	-133.8682
7880.000000	99.603	-144.5687
8000.000000	99.789	-156.3252
8120.000000	99.373	-167.2580
8250.000000	98.476	-176.0842
8380.000000	97.446	178.3209
8500.000000	96.574	175.0230
8620.000000	95.826	172.5090
8750.000000	95.109	169.9202
8850.000000	94.573	167.7921
9000.000000	93.711	164.4214
9120.000000	92.920	161.8929
9250.000000	91.945	159.8089
9380.000000	90.877	158.8185
9500.000000	89.864	159.0527
9620.000000	88.876	160.3603
9750.000000	87.886	162.7800
9880.000000	87.012	165.9843
10000.000000	86.317	169.4850
10150.000000	85.610	174.4117
10300.000000	85.098	179.6860
10440.000000	84.804	-175.2940
10600.000000	84.697	-169.7662
10750.000000	84.832	-165.2635
10900.000000	85.154	-162.1490
11060.000000	85.525	-161.0321
11200.000000	85.678	-161.4832
11380.000000	85.582	-161.8926
11500.000000	85.460	-161.2770
11720.000000	85.440	-159.0085
11800.000000	85.520	-158.2071
12060.000000	86.010	-157.0221
12200.000000	86.330	-157.6009
12410.000000	86.746	-160.0806
12500.000000	86.880	-161.6549
12650.000000	87.031	-164.7822
12800.000000	87.086	-168.3132
13150.000000	86.902	-176.7581
13200.000000	86.856	-177.9051
13400.000000	86.681	177.6483
13600.000000	86.579	173.0939
13800.000000	86.595	167.6818
14000.000000	86.678	160.4509
14300.000000	86.515	144.7238
14500.000000	85.836	131.9937
14750.000000	84.115	118.2014
15000.000000	81.754	111.3352
15250.000000	79.650	111.8035
15500.000000	79.005	114.5059
15750.000000	79.726	109.7026
16000.000000	79.867	94.0405
16250.000000	78.536	78.7267
16500.000000	76.539	71.4391
16750.000000	74.932	69.5459
17000.000000	74.101	69.2988
17250.000000	74.036	68.5386
17500.000000	74.630	65.6163
17750.000000	75.606	58.5196
18000.000000	76.448	45.2993
18250.000000	76.512	26.5261
18500.000000	75.357	7.8580
18750.000000	72.955	-1.3702
19000.000000	70.185	5.1912
19250.000000	69.486	15.5074
19500.000000	69.901	14.5582
19750.000000	69.676	8.9874
20000.000000	69.280	6.0294
