* Measurement data measured by REW V5.20.9
* Source: Input device not selected, no input selected, L, volume: no control
* Format: 128k Log Swept Sine, 1 sweep at -12.0 dBFS with no timing reference
* Dated: 2022. 7. 18 ¿ÀÈÄ 1:00:20
* REW Settings:
*  C-weighting compensation: Off
*  Target level: 75.0 dB
* Note: 
* Measurement: R_SBC
* Smoothing: 1/24 octave
* Frequency Step: 1/48 octave
* Start Frequency: 20.300 Hz
*
* Freq(Hz)	SPL(dB)	Phase(degrees)
20.299999	90.020	3.3920
20.600000	90.035	3.1510
20.900000	90.058	2.7311
21.200001	90.063	2.3655
21.400000	90.058	2.1655
21.799999	90.037	1.8615
22.000000	90.026	1.7496
22.400000	90.014	1.5775
22.700001	90.018	1.4352
23.000000	90.030	1.2135
23.299999	90.042	0.8810
23.600000	90.045	0.4540
24.000000	90.023	-0.1736
24.299999	89.990	-0.5864
24.700001	89.938	-0.9668
25.000000	89.912	-1.1384
25.400000	89.907	-1.3376
25.799999	89.931	-1.6886
26.200001	89.953	-2.2717
26.500000	89.952	-2.7986
26.900000	89.924	-3.4670
27.200001	89.891	-3.8493
27.600000	89.855	-4.1773
28.000000	89.848	-4.4172
28.500000	89.873	-4.8439
29.000000	89.894	-5.4945
29.500000	89.888	-6.1802
30.000000	89.869	-6.7006
30.400000	89.866	-7.0158
30.700001	89.874	-7.2529
31.100000	89.891	-7.6321
31.500000	89.903	-8.0848
32.000000	89.902	-8.6718
32.500000	89.887	-9.1878
33.000000	89.871	-9.6291
33.500000	89.859	-10.0618
34.000000	89.845	-10.5301
34.500000	89.821	-11.0134
35.000000	89.789	-11.4670
35.500000	89.758	-11.8802
36.000000	89.737	-12.3064
36.500000	89.721	-12.8185
37.000000	89.698	-13.4257
37.500000	89.657	-14.0329
38.200001	89.591	-14.6559
38.700001	89.569	-14.9389
39.500000	89.593	-15.4903
40.000000	89.617	-16.0147
40.599998	89.627	-16.7212
41.200001	89.618	-17.3502
41.799999	89.601	-17.8566
42.500000	89.580	-18.3251
43.099998	89.565	-18.6678
43.700001	89.552	-19.0360
44.400002	89.524	-19.5489
45.000000	89.481	-19.9833
45.500000	89.444	-20.2944
46.200001	89.408	-20.7665
46.799999	89.383	-21.3590
47.500000	89.325	-22.1949
48.200001	89.243	-22.8701
48.700001	89.197	-23.1957
49.400002	89.177	-23.6556
50.000000	89.176	-24.2506
50.799999	89.134	-25.1695
51.500000	89.065	-25.7007
52.200001	89.016	-25.9714
53.000000	88.987	-26.3626
53.799999	88.932	-26.8970
54.500000	88.864	-27.3117
55.200001	88.795	-27.7709
56.000000	88.692	-28.4241
57.000000	88.535	-29.0574
58.000000	88.431	-29.6178
59.000000	88.350	-30.4432
60.000000	88.274	-31.0968
60.799999	88.260	-31.5764
61.500000	88.249	-32.1725
62.200001	88.195	-32.7119
63.000000	88.116	-32.8572
64.000000	88.091	-32.6810
65.000000	88.111	-32.8774
66.000000	88.118	-33.4235
67.000000	88.099	-34.3906
68.000000	88.016	-35.5496
69.000000	87.898	-36.5061
70.000000	87.788	-37.2024
71.000000	87.709	-37.7086
72.000000	87.652	-38.2422
73.000000	87.572	-38.7977
74.000000	87.470	-39.2022
75.000000	87.377	-39.6171
76.199997	87.242	-40.5422
77.500000	87.018	-41.6185
78.800003	86.786	-42.4396
80.000000	86.613	-42.7416
81.199997	86.574	-43.0093
82.500000	86.538	-44.0176
83.800003	86.403	-44.7959
85.000000	86.271	-45.1582
86.199997	86.108	-45.4461
87.500000	85.923	-45.2926
88.500000	85.834	-45.2476
90.000000	85.673	-45.7204
91.199997	85.511	-46.0255
92.500000	85.362	-46.3094
93.800003	85.235	-46.7146
95.000000	85.125	-47.1669
96.199997	84.999	-47.6412
97.500000	84.834	-47.9970
98.800003	84.661	-48.0946
100.000000	84.522	-48.2254
101.500000	84.323	-48.5733
103.000000	84.122	-48.6499
104.400002	83.973	-48.5940
106.000000	83.829	-48.4555
107.500000	83.678	-48.6060
109.000000	83.440	-48.8601
110.599998	83.190	-48.8989
112.000000	83.032	-49.1702
113.800003	82.790	-49.3751
115.000000	82.599	-48.7642
117.199997	82.225	-46.6931
118.000000	82.064	-45.7581
120.599998	81.764	-43.8675
122.000000	81.651	-44.8097
124.099998	81.456	-46.0916
125.000000	81.402	-46.2728
126.500000	81.307	-46.0867
128.000000	81.162	-45.4155
131.500000	80.613	-43.1915
132.000000	80.548	-42.8245
134.000000	80.406	-41.6165
136.000000	80.312	-40.6833
138.000000	80.210	-39.2528
140.000000	80.114	-37.9945
143.000000	80.000	-36.6641
145.000000	79.927	-36.1792
147.500000	79.786	-34.8628
150.000000	79.671	-33.2864
152.500000	79.506	-32.1242
155.000000	79.370	-31.1740
157.500000	79.255	-30.3561
160.000000	79.198	-29.1405
162.500000	79.187	-27.5709
165.000000	79.210	-25.6565
167.500000	79.232	-24.4481
170.000000	79.140	-23.6816
172.500000	79.091	-22.5066
175.000000	79.127	-21.6234
177.500000	79.129	-21.0116
180.000000	79.151	-20.4236
182.500000	79.184	-19.5235
185.000000	79.202	-17.7229
187.500000	79.231	-15.6738
190.000000	79.240	-14.4255
192.500000	79.251	-13.6549
195.000000	79.361	-12.8540
197.500000	79.545	-12.2552
200.000000	79.729	-12.0014
203.000000	79.889	-12.1754
206.000000	79.954	-12.1037
209.000000	80.045	-11.4994
212.000000	80.187	-11.3445
214.000000	80.260	-11.6574
218.000000	80.291	-12.4564
220.000000	80.259	-12.5931
224.000000	80.195	-12.4264
227.000000	80.231	-12.2548
230.000000	80.293	-11.9955
233.000000	80.316	-11.7506
236.000000	80.346	-11.7331
240.000000	80.390	-11.8512
243.000000	80.349	-11.5461
247.000000	80.370	-11.0947
250.000000	80.440	-11.2166
254.000000	80.431	-11.8550
258.000000	80.372	-12.4514
262.000000	80.350	-12.4921
265.000000	80.335	-12.3113
269.000000	80.313	-12.0187
272.000000	80.305	-12.1937
276.000000	80.287	-12.5880
280.000000	80.248	-12.3239
285.000000	80.179	-11.9934
290.000000	80.136	-11.9815
295.000000	80.070	-11.5828
300.000000	80.069	-11.3816
304.000000	80.083	-11.6568
307.000000	80.097	-11.6812
311.000000	80.107	-11.2333
315.000000	80.070	-11.0024
320.000000	79.992	-11.2172
325.000000	79.936	-11.3757
330.000000	79.895	-10.9220
335.000000	79.836	-10.4153
340.000000	79.795	-10.5263
345.000000	79.767	-10.4563
350.000000	79.735	-10.1588
355.000000	79.660	-10.0329
360.000000	79.611	-9.8200
365.000000	79.569	-9.7146
370.000000	79.466	-9.5812
375.000000	79.375	-9.3975
382.000000	79.337	-8.9419
387.000000	79.288	-8.8923
395.000000	79.268	-8.3165
400.000000	79.304	-7.5260
406.000000	79.268	-7.1926
412.000000	79.231	-7.1825
418.000000	79.241	-6.8378
425.000000	79.184	-5.9822
431.000000	79.117	-5.5457
437.000000	79.043	-5.0876
444.000000	78.946	-4.6328
450.000000	78.902	-4.3600
455.000000	78.854	-4.1445
462.000000	78.804	-3.6519
468.000000	78.784	-3.1114
475.000000	78.762	-2.7487
482.000000	78.748	-2.3311
487.000000	78.753	-1.9507
494.000000	78.745	-1.2222
500.000000	78.740	-0.9631
508.000000	78.725	-0.8267
515.000000	78.698	-0.2381
522.000000	78.633	0.3812
530.000000	78.548	1.1519
538.000000	78.549	1.7479
545.000000	78.566	1.9535
552.000000	78.560	2.2123
560.000000	78.535	2.7774
570.000000	78.499	3.4213
580.000000	78.438	3.9306
590.000000	78.404	5.0005
600.000000	78.402	6.2685
608.000000	78.403	6.8179
615.000000	78.420	7.1974
622.000000	78.441	7.4957
630.000000	78.457	7.7909
640.000000	78.438	8.3504
650.000000	78.439	9.3195
660.000000	78.512	10.1314
670.000000	78.570	10.4952
680.000000	78.540	11.1332
690.000000	78.526	11.8362
700.000000	78.547	12.3637
710.000000	78.593	12.9166
720.000000	78.620	13.4398
730.000000	78.631	14.0100
740.000000	78.617	14.6472
750.000000	78.602	15.1936
762.000000	78.633	15.8557
775.000000	78.696	16.6614
788.000000	78.771	17.4539
800.000000	78.835	18.0113
812.000000	78.876	18.7441
825.000000	78.917	19.6572
838.000000	78.995	20.1965
850.000000	79.095	20.5111
862.000000	79.148	20.9786
875.000000	79.187	21.3580
885.000000	79.218	21.7075
900.000000	79.296	22.4806
912.000000	79.401	23.2288
925.000000	79.486	23.9711
938.000000	79.541	24.4943
950.000000	79.592	24.6856
962.000000	79.670	24.7568
975.000000	79.882	25.0031
988.000000	80.373	25.1493
1000.000000	80.725	25.2044
1015.000000	80.396	25.9285
1030.000000	80.107	26.6093
1044.000000	80.117	27.0937
1060.000000	80.204	27.5497
1075.000000	80.281	27.8539
1090.000000	80.371	28.0889
1106.000000	80.495	28.2986
1120.000000	80.580	28.5804
1138.000000	80.654	29.0693
1150.000000	80.714	29.3797
1172.000000	80.843	29.5629
1180.000000	80.880	29.5724
1206.000000	80.982	29.8733
1220.000000	81.044	30.0246
1241.000000	81.137	30.1799
1250.000000	81.172	30.2286
1265.000000	81.236	30.2945
1280.000000	81.295	30.3772
1315.000000	81.420	30.5437
1320.000000	81.437	30.5464
1340.000000	81.514	30.7641
1360.000000	81.589	31.2112
1380.000000	81.652	31.3301
1400.000000	81.725	31.4820
1430.000000	81.839	31.8117
1450.000000	81.905	32.0848
1475.000000	81.986	32.3924
1500.000000	82.067	32.5418
1525.000000	82.155	32.6305
1550.000000	82.255	32.9753
1575.000000	82.357	33.3465
1600.000000	82.457	33.6219
1625.000000	82.573	33.7736
1650.000000	82.677	33.9105
1675.000000	82.778	34.1519
1700.000000	82.883	34.5046
1725.000000	82.993	34.7430
1750.000000	83.114	34.7970
1775.000000	83.222	34.9079
1800.000000	83.328	35.0515
1825.000000	83.445	35.1918
1850.000000	83.571	35.3014
1875.000000	83.709	35.2915
1900.000000	83.841	35.2947
1925.000000	83.968	35.3224
1950.000000	84.105	35.2785
1975.000000	84.258	35.3625
2000.000000	84.417	35.4521
2030.000000	84.593	35.2042
2060.000000	84.764	34.9108
2090.000000	84.949	34.6742
2120.000000	85.139	34.4298
2140.000000	85.265	34.1950
2180.000000	85.528	33.6318
2200.000000	85.654	33.2924
2240.000000	85.902	32.4365
2270.000000	86.095	31.8171
2300.000000	86.299	31.0999
2330.000000	86.497	30.2759
2360.000000	86.682	29.4022
2400.000000	86.936	28.0464
2430.000000	87.120	26.9403
2470.000000	87.351	25.2803
2500.000000	87.514	23.7893
2540.000000	87.734	21.6608
2580.000000	87.941	19.4854
2620.000000	88.101	17.1699
2650.000000	88.192	15.3127
2690.000000	88.285	12.7136
2720.000000	88.330	10.7073
2760.000000	88.349	7.9817
2800.000000	88.315	5.2599
2850.000000	88.217	1.9835
2900.000000	88.052	-1.1986
2950.000000	87.834	-4.2169
3000.000000	87.562	-6.9320
3040.000000	87.344	-8.7480
3070.000000	87.173	-9.9756
3110.000000	86.926	-11.4982
3150.000000	86.660	-12.8566
3200.000000	86.332	-14.3003
3250.000000	85.999	-15.5735
3300.000000	85.660	-16.6278
3350.000000	85.334	-17.3515
3400.000000	85.011	-17.8804
3450.000000	84.708	-18.3166
3500.000000	84.424	-18.6541
3550.000000	84.130	-18.8555
3600.000000	83.854	-18.9059
3650.000000	83.590	-18.7542
3700.000000	83.329	-18.6060
3750.000000	83.075	-18.4300
3820.000000	82.734	-17.9247
3870.000000	82.505	-17.5315
3950.000000	82.153	-16.7940
4000.000000	81.939	-16.2310
4060.000000	81.714	-15.5503
4120.000000	81.526	-14.7494
4180.000000	81.353	-13.9240
4250.000000	81.147	-13.0056
4310.000000	80.972	-12.1626
4370.000000	80.817	-11.2735
4440.000000	80.639	-10.1575
4500.000000	80.491	-9.1540
4550.000000	80.389	-8.3583
4620.000000	80.260	-7.3737
4680.000000	80.150	-6.4185
4750.000000	80.023	-5.0873
4820.000000	79.925	-3.8221
4870.000000	79.874	-2.9369
4940.000000	79.813	-1.6467
5000.000000	79.768	-0.5888
5080.000000	79.687	0.5816
5150.000000	79.609	1.6093
5220.000000	79.542	2.8133
5300.000000	79.480	4.3308
5380.000000	79.437	5.7936
5450.000000	79.398	7.1521
5520.000000	79.365	8.5980
5600.000000	79.334	10.1892
5700.000000	79.323	12.2808
5800.000000	79.348	14.4932
5900.000000	79.408	16.6700
6000.000000	79.511	18.6175
6080.000000	79.595	20.4398
6150.000000	79.677	22.2239
6220.000000	79.792	24.0450
6300.000000	79.978	26.1224
6400.000000	80.250	28.6335
6500.000000	80.534	31.1488
6600.000000	80.883	33.4938
6700.000000	81.290	35.6122
6800.000000	81.747	37.6525
6900.000000	82.284	39.4708
7000.000000	82.891	40.9534
7100.000000	83.560	41.8273
7200.000000	84.285	42.0640
7300.000000	85.054	41.6818
7400.000000	85.857	40.4867
7500.000000	86.668	38.2884
7620.000000	87.585	34.1277
7750.000000	88.402	27.6039
7880.000000	88.932	19.4441
8000.000000	89.095	11.1891
8120.000000	88.927	3.0285
8250.000000	88.437	-4.7082
8380.000000	87.733	-10.6879
8500.000000	86.998	-14.6237
8620.000000	86.238	-17.3037
8750.000000	85.446	-19.0446
8850.000000	84.883	-19.7076
9000.000000	84.138	-19.9650
9120.000000	83.621	-19.7067
9250.000000	83.122	-18.9633
9380.000000	82.703	-17.9047
9500.000000	82.387	-16.8087
9620.000000	82.125	-15.5696
9750.000000	81.901	-14.1654
9880.000000	81.741	-12.7692
10000.000000	81.655	-11.5671
10150.000000	81.626	-10.2165
10300.000000	81.661	-9.0754
10440.000000	81.759	-8.3448
10600.000000	81.940	-8.0348
10750.000000	82.154	-8.2431
10900.000000	82.410	-9.1522
11060.000000	82.700	-11.0287
11200.000000	82.920	-13.3723
11380.000000	83.103	-17.5485
11500.000000	83.140	-21.0063
11720.000000	82.938	-28.2669
11800.000000	82.768	-31.0452
12060.000000	81.859	-39.4032
12200.000000	81.180	-42.9632
12410.000000	80.013	-46.6927
12500.000000	79.481	-47.7002
12650.000000	78.571	-48.7109
12800.000000	77.674	-49.0194
13150.000000	75.749	-47.3333
13200.000000	75.494	-46.8706
13400.000000	74.546	-44.3472
13600.000000	73.658	-40.7142
13800.000000	72.825	-36.4857
14000.000000	72.070	-32.2015
14300.000000	71.088	-25.0808
14500.000000	70.548	-19.8135
14750.000000	69.961	-13.1101
15000.000000	69.479	-6.0384
15250.000000	69.105	0.8300
15500.000000	68.811	7.6289
15750.000000	68.557	14.7882
16000.000000	68.419	21.6178
16250.000000	68.440	28.0423
16500.000000	68.606	34.4563
16750.000000	68.894	40.4218
17000.000000	69.384	45.9698
17250.000000	69.956	51.0127
17500.000000	70.677	54.6088
17750.000000	71.581	55.9080
18000.000000	72.540	54.2662
18250.000000	73.309	49.1752
18500.000000	73.586	40.4815
18750.000000	73.137	30.3777
19000.000000	71.909	22.3687
19250.000000	70.092	18.6018
19500.000000	68.031	17.8829
19750.000000	66.100	15.7108
20000.000000	64.894	11.0395
