* Measurement data measured by REW V5.20.9
* Source: Mic in at rear panel (Pink)(Realtek(R) Audio), MICROPHONE (마스), R, volume: 1.000
* Format: 256k Log Swept Sine, 1 sweep at -12.0 dBFS with no timing reference
* Dated: 2022. 9. 12 오후 4:19:24
* REW Settings:
*  C-weighting compensation: Off
*  Target level: 75.0 dB
* Note: 
* Measurement: 9월 12
* Smoothing: 1/24 octave
* Frequency Step: 1/48 octave
* Start Frequency: 20.300 Hz
*
* Freq(Hz)	SPL(dB)	Phase(degrees)
20.299999	102.124	-141.1217
20.600000	102.147	-141.4948
20.900000	102.192	-142.1549
21.200001	102.230	-142.7700
21.400000	102.252	-143.1659
21.799999	102.289	-143.9746
22.000000	102.306	-144.4003
22.400000	102.332	-145.2803
22.700001	102.348	-145.9515
23.000000	102.362	-146.6275
23.299999	102.379	-147.3085
23.600000	102.397	-147.9969
24.000000	102.427	-148.9290
24.299999	102.452	-149.6355
24.700001	102.489	-150.5763
25.000000	102.518	-151.2710
25.400000	102.559	-152.1745
25.799999	102.602	-153.0519
26.200001	102.647	-153.9093
26.500000	102.678	-154.5408
26.900000	102.713	-155.3623
27.200001	102.732	-155.9540
27.600000	102.751	-156.6965
28.000000	102.763	-157.3783
28.500000	102.775	-158.1628
29.000000	102.784	-158.9211
29.500000	102.786	-159.6841
30.000000	102.778	-160.4337
30.400000	102.770	-161.0060
30.700001	102.766	-161.4267
31.100000	102.765	-162.0112
31.500000	102.768	-162.6551
32.000000	102.765	-163.5369
32.500000	102.754	-164.4180
33.000000	102.748	-165.2334
33.500000	102.762	-166.0427
34.000000	102.783	-166.9311
34.500000	102.792	-167.8231
35.000000	102.794	-168.5389
35.500000	102.826	-169.0694
36.000000	102.905	-169.7126
36.500000	102.988	-170.7659
37.000000	103.003	-172.1210
37.500000	102.922	-173.2801
38.200001	102.753	-173.8548
38.700001	102.696	-173.7384
39.500000	102.718	-173.9007
40.000000	102.724	-174.3622
40.599998	102.696	-174.9457
41.200001	102.665	-175.4179
41.799999	102.650	-175.9366
42.500000	102.632	-176.6950
43.099998	102.608	-177.3631
43.700001	102.590	-178.0106
44.400002	102.577	-178.8103
45.000000	102.561	-179.5414
45.500000	102.541	179.8630
46.200001	102.503	179.1122
46.799999	102.471	178.5622
47.500000	102.441	177.9907
48.200001	102.418	177.4350
48.700001	102.403	177.0306
49.400002	102.381	176.4504
50.000000	102.359	175.9405
50.799999	102.325	175.2625
51.500000	102.293	174.6952
52.200001	102.261	174.1566
53.000000	102.228	173.5805
53.799999	102.203	173.0233
54.500000	102.184	172.4905
55.200001	102.157	171.9092
56.000000	102.111	171.2527
57.000000	102.035	170.5087
58.000000	101.951	169.8895
59.000000	101.880	169.2861
60.000000	101.801	168.5609
60.799999	101.725	168.0560
61.500000	101.670	167.7101
62.200001	101.633	167.3659
63.000000	101.602	166.9161
64.000000	101.564	166.2884
65.000000	101.516	165.6823
66.000000	101.467	165.1594
67.000000	101.414	164.6226
68.000000	101.344	164.1667
69.000000	101.280	163.8040
70.000000	101.222	163.3637
71.000000	101.154	162.8843
72.000000	101.083	162.4193
73.000000	101.013	161.9521
74.000000	100.943	161.4879
75.000000	100.876	161.0352
76.199997	100.794	160.5265
77.500000	100.710	160.0408
78.800003	100.629	159.5641
80.000000	100.547	159.1221
81.199997	100.453	158.7061
82.500000	100.340	158.3217
83.800003	100.233	157.9962
85.000000	100.144	157.6559
86.199997	100.060	157.2563
87.500000	99.969	156.8124
88.500000	99.900	156.4973
90.000000	99.800	156.1082
91.199997	99.722	155.8719
92.500000	99.637	155.6684
93.800003	99.549	155.4932
95.000000	99.466	155.3246
96.199997	99.380	155.1255
97.500000	99.280	154.9009
98.800003	99.179	154.7050
100.000000	99.085	154.5716
101.500000	98.973	154.4604
103.000000	98.863	154.3734
104.400002	98.761	154.2996
106.000000	98.643	154.2025
107.500000	98.528	154.1133
109.000000	98.411	154.0799
110.599998	98.299	154.0968
112.000000	98.219	154.0781
113.800003	98.127	154.0209
115.000000	98.068	154.0495
117.199997	97.962	154.4442
118.000000	97.928	154.6957
120.599998	97.827	155.0439
122.000000	97.701	154.9466
124.099998	97.500	155.0228
125.000000	97.435	155.0776
126.500000	97.356	155.1855
128.000000	97.300	155.3405
131.500000	97.162	155.9095
132.000000	97.137	155.9957
134.000000	97.034	156.3063
136.000000	96.936	156.5699
138.000000	96.852	156.9110
140.000000	96.790	157.3454
143.000000	96.703	158.0028
145.000000	96.641	158.4649
147.500000	96.577	159.0181
150.000000	96.525	159.5168
152.500000	96.483	160.0034
155.000000	96.447	160.4779
157.500000	96.411	160.9056
160.000000	96.378	161.2720
162.500000	96.350	161.6031
165.000000	96.325	161.9507
167.500000	96.306	162.3014
170.000000	96.292	162.5805
172.500000	96.280	162.8175
175.000000	96.267	163.0671
177.500000	96.250	163.3228
180.000000	96.232	163.5389
182.500000	96.219	163.6961
185.000000	96.208	163.8307
187.500000	96.199	163.9424
190.000000	96.186	164.0258
192.500000	96.173	164.1009
195.000000	96.162	164.1794
197.500000	96.151	164.2697
200.000000	96.135	164.3545
203.000000	96.103	164.4243
206.000000	96.070	164.4756
209.000000	96.045	164.5656
212.000000	96.019	164.7361
214.000000	95.997	164.8729
218.000000	95.946	165.1298
220.000000	95.922	165.2564
224.000000	95.892	165.5727
227.000000	95.888	165.8795
230.000000	95.893	166.1859
233.000000	95.903	166.3986
236.000000	95.916	166.4760
240.000000	95.931	166.4046
243.000000	95.934	166.2443
247.000000	95.918	165.9315
250.000000	95.890	165.6834
254.000000	95.847	165.4495
258.000000	95.799	165.3608
262.000000	95.738	165.3007
265.000000	95.688	165.2470
269.000000	95.620	165.2078
272.000000	95.570	165.2115
276.000000	95.504	165.2686
280.000000	95.439	165.3681
285.000000	95.359	165.5175
290.000000	95.279	165.6481
295.000000	95.199	165.7771
300.000000	95.122	165.9726
304.000000	95.064	166.1710
307.000000	95.022	166.3404
311.000000	94.966	166.6078
315.000000	94.908	166.9124
320.000000	94.842	167.2825
325.000000	94.791	167.6652
330.000000	94.749	168.0737
335.000000	94.718	168.4793
340.000000	94.696	168.8613
345.000000	94.677	169.1749
350.000000	94.650	169.4169
355.000000	94.613	169.5929
360.000000	94.571	169.7416
365.000000	94.523	169.9072
370.000000	94.469	170.0935
375.000000	94.418	170.3330
382.000000	94.350	170.7640
387.000000	94.301	171.0734
395.000000	94.219	171.5642
400.000000	94.163	171.8647
406.000000	94.100	172.2452
412.000000	94.042	172.6554
418.000000	93.988	173.0593
425.000000	93.932	173.5364
431.000000	93.886	173.9462
437.000000	93.840	174.3364
444.000000	93.789	174.7706
450.000000	93.749	175.1413
455.000000	93.719	175.4767
462.000000	93.675	175.9999
468.000000	93.635	176.4436
475.000000	93.594	176.9282
482.000000	93.558	177.4459
487.000000	93.530	177.8297
494.000000	93.491	178.3371
500.000000	93.460	178.7573
508.000000	93.419	179.3276
515.000000	93.384	179.8326
522.000000	93.356	-179.6426
530.000000	93.326	-179.0315
538.000000	93.293	-178.4214
545.000000	93.264	-177.9064
552.000000	93.238	-177.4069
560.000000	93.211	-176.8193
570.000000	93.176	-176.0466
580.000000	93.143	-175.2845
590.000000	93.118	-174.5266
600.000000	93.092	-173.7881
608.000000	93.071	-173.1994
615.000000	93.056	-172.6844
622.000000	93.045	-172.1782
630.000000	93.033	-171.6023
640.000000	93.016	-170.8539
650.000000	93.001	-170.0693
660.000000	92.990	-169.2486
670.000000	92.985	-168.4332
680.000000	92.980	-167.6761
690.000000	92.976	-166.9531
700.000000	92.975	-166.2288
710.000000	92.976	-165.4946
720.000000	92.975	-164.7387
730.000000	92.980	-163.9786
740.000000	92.991	-163.2317
750.000000	93.004	-162.4834
762.000000	93.022	-161.5789
775.000000	93.052	-160.6445
788.000000	93.083	-159.7771
800.000000	93.118	-158.9787
812.000000	93.157	-158.1946
825.000000	93.199	-157.3906
838.000000	93.245	-156.6506
850.000000	93.290	-156.0506
862.000000	93.328	-155.5288
875.000000	93.358	-155.0234
885.000000	93.371	-154.6464
900.000000	93.367	-154.0915
912.000000	93.344	-153.5872
925.000000	93.305	-152.8288
938.000000	93.264	-151.8033
950.000000	93.245	-150.6620
962.000000	93.260	-149.4185
975.000000	93.315	-148.0542
988.000000	93.397	-146.7763
1000.000000	93.490	-145.7438
1015.000000	93.620	-144.6118
1030.000000	93.756	-143.6092
1044.000000	93.883	-142.7605
1060.000000	94.031	-141.8948
1075.000000	94.168	-141.2152
1090.000000	94.303	-140.6284
1106.000000	94.449	-140.0904
1120.000000	94.577	-139.6725
1138.000000	94.746	-139.1309
1150.000000	94.857	-138.7818
1172.000000	95.052	-138.2570
1180.000000	95.121	-138.1021
1206.000000	95.333	-137.6667
1220.000000	95.443	-137.4218
1241.000000	95.604	-137.0905
1250.000000	95.670	-136.9697
1265.000000	95.779	-136.8036
1280.000000	95.885	-136.6734
1315.000000	96.114	-136.3185
1320.000000	96.147	-136.2666
1340.000000	96.274	-136.0284
1360.000000	96.392	-135.7391
1380.000000	96.507	-135.5014
1400.000000	96.627	-135.2885
1430.000000	96.814	-134.9803
1450.000000	96.927	-134.7818
1475.000000	97.078	-134.5520
1500.000000	97.236	-134.2750
1525.000000	97.385	-133.9809
1550.000000	97.532	-133.7186
1575.000000	97.683	-133.4938
1600.000000	97.833	-133.1936
1625.000000	97.991	-132.9115
1650.000000	98.149	-132.7191
1675.000000	98.309	-132.5218
1700.000000	98.476	-132.2677
1725.000000	98.640	-132.0567
1750.000000	98.799	-131.8826
1775.000000	98.958	-131.7135
1800.000000	99.126	-131.6189
1825.000000	99.301	-131.5272
1850.000000	99.482	-131.4049
1875.000000	99.675	-131.3280
1900.000000	99.867	-131.2990
1925.000000	100.057	-131.3231
1950.000000	100.255	-131.4453
1975.000000	100.466	-131.5933
2000.000000	100.673	-131.7551
2030.000000	100.923	-132.0482
2060.000000	101.191	-132.4567
2090.000000	101.465	-132.9390
2120.000000	101.736	-133.4821
2140.000000	101.918	-133.8913
2180.000000	102.301	-134.9691
2200.000000	102.492	-135.6321
2240.000000	102.868	-137.1366
2270.000000	103.150	-138.4845
2300.000000	103.423	-139.9989
2330.000000	103.691	-141.6492
2360.000000	103.953	-143.4890
2400.000000	104.283	-146.2747
2430.000000	104.508	-148.6730
2470.000000	104.771	-152.2613
2500.000000	104.926	-155.1288
2540.000000	105.056	-159.1382
2580.000000	105.102	-163.4156
2620.000000	105.059	-167.9028
2650.000000	104.955	-171.2372
2690.000000	104.735	-175.4091
2720.000000	104.508	-178.3078
2760.000000	104.125	178.1868
2800.000000	103.673	175.1936
2850.000000	103.039	172.3300
2900.000000	102.396	170.4365
2950.000000	101.778	169.4670
3000.000000	101.227	169.1835
3040.000000	100.835	169.3420
3070.000000	100.568	169.6071
3110.000000	100.253	170.0602
3150.000000	99.974	170.6132
3200.000000	99.681	171.3379
3250.000000	99.437	171.9080
3300.000000	99.208	172.3687
3350.000000	98.997	172.8349
3400.000000	98.811	173.1959
3450.000000	98.645	173.5205
3500.000000	98.489	173.8428
3550.000000	98.327	174.1268
3600.000000	98.158	174.4379
3650.000000	97.990	174.7048
3700.000000	97.819	174.9587
3750.000000	97.660	175.3248
3820.000000	97.458	175.9013
3870.000000	97.299	176.2905
3950.000000	97.062	176.9662
4000.000000	96.917	177.4608
4060.000000	96.742	178.0629
4120.000000	96.574	178.7526
4180.000000	96.415	179.4771
4250.000000	96.236	-179.5904
4310.000000	96.084	-178.7206
4370.000000	95.934	-177.8373
4440.000000	95.772	-176.8163
4500.000000	95.635	-175.9371
4550.000000	95.524	-175.1781
4620.000000	95.391	-174.0892
4680.000000	95.282	-173.1671
4750.000000	95.150	-172.0538
4820.000000	95.032	-170.9162
4870.000000	94.961	-170.1167
4940.000000	94.879	-169.0064
5000.000000	94.814	-168.0790
5080.000000	94.722	-166.8527
5150.000000	94.655	-165.7780
5220.000000	94.598	-164.7060
5300.000000	94.551	-163.4771
5380.000000	94.514	-162.2943
5450.000000	94.489	-161.3345
5520.000000	94.468	-160.4153
5600.000000	94.456	-159.3753
5700.000000	94.467	-158.1199
5800.000000	94.486	-156.9490
5900.000000	94.496	-155.9534
6000.000000	94.518	-155.0648
6080.000000	94.552	-154.3455
6150.000000	94.576	-153.7007
6220.000000	94.600	-153.0894
6300.000000	94.648	-152.4335
6400.000000	94.717	-151.6965
6500.000000	94.774	-151.0460
6600.000000	94.837	-150.4273
6700.000000	94.911	-149.8239
6800.000000	94.989	-149.2350
6900.000000	95.091	-148.5664
7000.000000	95.233	-147.8254
7100.000000	95.412	-147.0269
7200.000000	95.651	-146.1666
7300.000000	95.959	-145.4223
7400.000000	96.325	-145.0246
7500.000000	96.746	-145.1952
7620.000000	97.302	-146.4499
7750.000000	97.835	-149.1460
7880.000000	98.149	-152.8037
8000.000000	98.241	-156.5241
8120.000000	98.183	-160.0765
8250.000000	98.006	-163.3853
8380.000000	97.756	-166.0695
8500.000000	97.505	-168.0172
8620.000000	97.248	-169.5124
8750.000000	96.959	-170.7046
8850.000000	96.738	-171.4177
9000.000000	96.433	-172.3105
9120.000000	96.231	-172.8364
9250.000000	96.054	-173.2639
9380.000000	95.912	-173.7041
9500.000000	95.808	-174.2324
9620.000000	95.722	-174.8253
9750.000000	95.667	-175.5335
9880.000000	95.653	-176.4801
10000.000000	95.665	-177.5759
10150.000000	95.693	-179.2777
10300.000000	95.719	178.4985
10440.000000	95.732	175.9177
10600.000000	95.724	172.3365
10750.000000	95.655	168.4191
10900.000000	95.477	163.9713
11060.000000	95.137	158.9405
11200.000000	94.714	154.5880
11380.000000	94.008	149.4164
11500.000000	93.447	146.4290
11720.000000	92.295	142.0998
11800.000000	91.860	140.9193
12060.000000	90.414	138.4148
12200.000000	89.636	137.7901
12410.000000	88.510	137.6037
12500.000000	88.045	137.7535
12650.000000	87.296	138.2551
12800.000000	86.578	139.0180
13150.000000	85.086	141.5692
13200.000000	84.894	141.9918
13400.000000	84.186	143.7885
13600.000000	83.546	145.7136
13800.000000	82.986	147.6786
14000.000000	82.507	149.6568
14300.000000	81.914	152.6285
14500.000000	81.617	154.5099
14750.000000	81.339	156.7453
15000.000000	81.164	158.7697
15250.000000	81.140	160.4040
15500.000000	81.315	161.5098
15750.000000	81.659	158.3687
16000.000000	81.916	87.9207
16250.000000	80.890	24.1335
16500.000000	76.402	-62.5742
16750.000000	68.024	88.4189
17000.000000	57.172	-90.3086
17250.000000	46.031	-7.3906
17500.000000	40.895	167.0938
17750.000000	40.623	-15.1719
18000.000000	40.899	-99.5547
18250.000000	41.001	-17.9375
18500.000000	41.081	-149.0547
18750.000000	41.363	51.9766
19000.000000	41.577	-115.0703
19250.000000	41.567	-72.1875
19500.000000	41.585	64.2344
19750.000000	41.654	7.0625
20000.000000	41.587	-124.5312
