* Measurement data measured by REW V5.20.7
* Source: Input device not selected, no input selected, L, volume: no control
* Format: 128k Log Swept Sine, 1 sweep at -12.0 dBFS with no timing reference
* Dated: 2022. 5. 1 ¿ÀÈÄ 11:21:23
* REW Settings:
*  C-weighting compensation: Off
*  Target level: 75.0 dB
* Note: 
* Measurement: R
* Smoothing: 1/24 octave
* Frequency Step: 1/48 octave
* Start Frequency: 20.300 Hz
*
* Freq(Hz)	SPL(dB)	Phase(degrees)
20.299999	85.434	-147.4367
20.600000	85.441	-147.5744
20.900000	85.466	-147.8319
21.200001	85.516	-148.1327
21.400000	85.558	-148.4099
21.799999	85.643	-149.1995
22.000000	85.677	-149.7085
22.400000	85.715	-150.8658
22.700001	85.716	-151.7652
23.000000	85.700	-152.6236
23.299999	85.672	-153.4077
23.600000	85.641	-154.1031
24.000000	85.605	-154.8942
24.299999	85.592	-155.4147
24.700001	85.599	-156.0909
25.000000	85.622	-156.6610
25.400000	85.662	-157.5848
25.799999	85.688	-158.6873
26.200001	85.680	-159.8214
26.500000	85.651	-160.5599
26.900000	85.603	-161.2752
27.200001	85.579	-161.6099
27.600000	85.585	-161.9102
28.000000	85.633	-162.2708
28.500000	85.715	-163.0440
29.000000	85.764	-164.1042
29.500000	85.760	-165.1526
30.000000	85.731	-165.9843
30.400000	85.711	-166.5308
30.700001	85.702	-166.9305
31.100000	85.689	-167.5015
31.500000	85.670	-168.1104
32.000000	85.633	-168.8537
32.500000	85.592	-169.5204
33.000000	85.563	-170.1510
33.500000	85.545	-170.8332
34.000000	85.527	-171.5924
34.500000	85.500	-172.3434
35.000000	85.471	-172.9746
35.500000	85.460	-173.4654
36.000000	85.477	-173.9313
36.500000	85.510	-174.4966
37.000000	85.532	-175.1429
37.500000	85.535	-175.7304
38.200001	85.529	-176.3507
38.700001	85.522	-176.7735
39.500000	85.458	-177.3964
40.000000	85.397	-177.5492
40.599998	85.350	-177.7006
41.200001	85.284	-178.3319
41.799999	85.085	-179.0289
42.500000	84.751	-178.3149
43.099998	84.698	-176.5219
43.700001	84.941	-175.8218
44.400002	85.216	-177.7453
45.000000	85.202	179.6583
45.500000	85.070	178.0794
46.200001	84.907	176.9160
46.799999	84.855	176.1859
47.500000	84.833	175.2581
48.200001	84.819	174.4089
48.700001	84.809	173.8685
49.400002	84.782	173.2355
50.000000	84.751	172.8764
50.799999	84.715	172.5244
51.500000	84.672	172.2096
52.200001	84.619	171.9771
53.000000	84.587	171.6990
53.799999	84.582	171.0023
54.500000	84.547	170.0082
55.200001	84.455	169.0227
56.000000	84.329	168.4349
57.000000	84.295	168.3232
58.000000	84.373	167.6940
59.000000	84.370	166.6716
60.000000	84.273	166.1014
60.799999	84.164	166.0991
61.500000	84.077	166.4608
62.200001	84.038	166.9570
63.000000	84.044	167.2089
64.000000	84.034	166.9383
65.000000	83.990	166.4773
66.000000	83.932	165.8988
67.000000	83.865	165.4521
68.000000	83.840	165.0241
69.000000	83.801	164.3168
70.000000	83.704	163.8560
71.000000	83.631	163.8128
72.000000	83.602	163.7503
73.000000	83.581	163.5409
74.000000	83.550	163.2646
75.000000	83.510	163.0203
76.199997	83.462	162.7287
77.500000	83.364	162.2111
78.800003	83.187	162.2600
80.000000	83.135	162.6462
81.199997	83.134	162.2175
82.500000	83.086	161.3943
83.800003	83.005	160.6782
85.000000	82.963	160.4441
86.199997	82.961	160.0283
87.500000	82.882	159.5964
88.500000	82.802	159.6116
90.000000	82.707	159.7808
91.199997	82.655	159.7933
92.500000	82.600	159.4820
93.800003	82.513	159.0922
95.000000	82.413	158.8722
96.199997	82.305	158.9200
97.500000	82.215	159.2437
98.800003	82.191	159.4395
100.000000	82.160	159.0452
101.500000	82.047	158.5573
103.000000	81.970	158.0639
104.400002	81.837	157.2277
106.000000	81.538	157.2375
107.500000	81.380	158.9293
109.000000	81.536	160.0878
110.599998	81.725	159.5988
112.000000	81.819	158.8052
113.800003	81.847	158.0677
115.000000	81.790	157.9615
117.199997	81.574	158.6508
118.000000	81.464	158.8402
120.599998	81.011	159.2341
122.000000	80.893	158.4919
124.099998	80.745	156.3497
125.000000	80.752	156.0153
126.500000	80.980	155.8691
128.000000	81.286	155.4161
131.500000	81.025	154.7383
132.000000	80.796	155.5330
134.000000	80.072	161.3240
136.000000	80.055	164.7614
138.000000	80.122	164.1191
140.000000	80.347	163.0063
143.000000	80.723	160.8302
145.000000	80.983	161.5536
147.500000	81.349	161.0011
150.000000	81.215	159.4208
152.500000	80.871	159.7339
155.000000	80.482	160.1911
157.500000	80.230	160.3481
160.000000	80.421	158.8892
162.500000	80.682	157.7536
165.000000	80.835	157.8463
167.500000	80.736	157.7829
170.000000	80.608	157.4443
172.500000	80.591	156.8292
175.000000	80.514	156.3940
177.500000	80.357	156.5806
180.000000	80.269	156.7613
182.500000	80.196	156.7200
185.000000	80.100	156.9794
187.500000	80.020	157.1574
190.000000	79.973	157.1768
192.500000	79.968	157.2371
195.000000	79.933	157.3522
197.500000	79.835	157.3210
200.000000	79.709	157.1323
203.000000	79.615	156.9988
206.000000	79.574	156.9721
209.000000	79.580	156.7970
212.000000	79.566	156.5657
214.000000	79.515	156.8599
218.000000	79.412	157.5666
220.000000	79.346	157.7378
224.000000	79.235	157.7591
227.000000	79.128	156.9230
230.000000	79.016	156.8621
233.000000	79.029	158.1658
236.000000	79.030	159.2894
240.000000	78.959	159.7869
243.000000	78.950	159.6894
247.000000	78.959	159.5714
250.000000	78.933	159.6940
254.000000	78.873	159.7736
258.000000	78.752	159.6802
262.000000	78.636	159.9991
265.000000	78.613	160.1646
269.000000	78.595	160.1081
272.000000	78.562	160.2234
276.000000	78.516	160.5270
280.000000	78.455	160.9280
285.000000	78.407	161.5485
290.000000	78.400	162.1506
295.000000	78.351	162.1116
300.000000	78.278	162.1375
304.000000	78.228	162.5236
307.000000	78.205	162.7864
311.000000	78.167	163.1731
315.000000	78.116	163.4412
320.000000	78.038	163.3301
325.000000	77.970	163.6191
330.000000	77.941	164.2228
335.000000	77.890	164.3482
340.000000	77.827	164.2622
345.000000	77.808	164.3698
350.000000	77.812	164.8027
355.000000	77.772	165.3021
360.000000	77.697	165.9411
365.000000	77.616	166.5734
370.000000	77.596	166.7429
375.000000	77.603	166.8032
382.000000	77.560	167.2717
387.000000	77.496	167.6240
395.000000	77.426	168.2613
400.000000	77.394	168.6902
406.000000	77.359	169.0119
412.000000	77.294	169.5453
418.000000	77.223	169.9289
425.000000	77.226	170.3356
431.000000	77.245	170.7632
437.000000	77.243	171.0391
444.000000	77.183	171.3630
450.000000	77.130	171.6470
455.000000	77.102	171.9615
462.000000	77.062	172.5564
468.000000	77.027	173.0171
475.000000	77.015	173.4327
482.000000	77.017	173.8742
487.000000	77.016	174.3796
494.000000	77.007	175.2208
500.000000	76.990	175.7009
508.000000	76.944	176.1597
515.000000	76.926	176.4834
522.000000	76.906	176.7909
530.000000	76.892	177.2840
538.000000	76.844	177.9503
545.000000	76.808	178.4197
552.000000	76.796	179.0121
560.000000	76.817	179.7574
570.000000	76.806	-179.7082
580.000000	76.777	-178.8483
590.000000	76.803	-177.8974
600.000000	76.836	-177.1854
608.000000	76.829	-176.7391
615.000000	76.776	-176.3539
622.000000	76.735	-175.8056
630.000000	76.730	-175.0227
640.000000	76.781	-173.9047
650.000000	76.806	-173.0756
660.000000	76.811	-172.6529
670.000000	76.826	-172.0941
680.000000	76.794	-171.3610
690.000000	76.784	-170.5732
700.000000	76.822	-169.8397
710.000000	76.859	-169.2759
720.000000	76.873	-168.5470
730.000000	76.894	-167.6598
740.000000	76.959	-166.9825
750.000000	77.009	-166.3142
762.000000	77.012	-165.2480
775.000000	77.040	-164.2474
788.000000	77.110	-163.4162
800.000000	77.144	-162.4589
812.000000	77.195	-161.4464
825.000000	77.290	-160.4489
838.000000	77.369	-159.5385
850.000000	77.424	-158.7408
862.000000	77.490	-157.8188
875.000000	77.571	-156.8085
885.000000	77.615	-156.1812
900.000000	77.680	-155.1410
912.000000	77.756	-154.4172
925.000000	77.871	-153.7536
938.000000	77.989	-153.0642
950.000000	78.097	-152.3588
962.000000	78.201	-151.7473
975.000000	78.309	-151.2068
988.000000	78.403	-150.8401
1000.000000	78.487	-150.4301
1015.000000	78.656	-149.1834
1030.000000	78.796	-148.1278
1044.000000	78.911	-147.3781
1060.000000	79.047	-146.6549
1075.000000	79.189	-146.0709
1090.000000	79.331	-145.5128
1106.000000	79.463	-145.0004
1120.000000	79.600	-144.5564
1138.000000	79.777	-143.9491
1150.000000	79.882	-143.6021
1172.000000	80.066	-143.0079
1180.000000	80.125	-142.7751
1206.000000	80.349	-141.9729
1220.000000	80.473	-141.6060
1241.000000	80.623	-141.1107
1250.000000	80.683	-140.8531
1265.000000	80.781	-140.4037
1280.000000	80.895	-140.0160
1315.000000	81.167	-139.2049
1320.000000	81.204	-139.0774
1340.000000	81.351	-138.5616
1360.000000	81.504	-138.0284
1380.000000	81.660	-137.5055
1400.000000	81.818	-136.9262
1430.000000	82.043	-135.9549
1450.000000	82.213	-135.3127
1475.000000	82.439	-134.6361
1500.000000	82.644	-133.9764
1525.000000	82.861	-133.3713
1550.000000	83.089	-132.9550
1575.000000	83.315	-132.5780
1600.000000	83.542	-132.1487
1625.000000	83.773	-131.6425
1650.000000	84.001	-131.0869
1675.000000	84.229	-130.4947
1700.000000	84.471	-130.0353
1725.000000	84.725	-129.6801
1750.000000	85.001	-129.3153
1775.000000	85.271	-129.0072
1800.000000	85.537	-128.7798
1825.000000	85.815	-128.6766
1850.000000	86.093	-128.6492
1875.000000	86.368	-128.6099
1900.000000	86.648	-128.6196
1925.000000	86.928	-128.7253
1950.000000	87.213	-128.9198
1975.000000	87.510	-129.2379
2000.000000	87.802	-129.6506
2030.000000	88.147	-130.2628
2060.000000	88.493	-130.9657
2090.000000	88.844	-131.8096
2120.000000	89.185	-132.8894
2140.000000	89.401	-133.6797
2180.000000	89.812	-135.4641
2200.000000	90.006	-136.4940
2240.000000	90.366	-138.7566
2270.000000	90.608	-140.5829
2300.000000	90.819	-142.4877
2330.000000	90.998	-144.4624
2360.000000	91.145	-146.4606
2400.000000	91.302	-149.0169
2430.000000	91.408	-150.8419
2470.000000	91.535	-153.3946
2500.000000	91.599	-155.4927
2540.000000	91.622	-158.4762
2580.000000	91.558	-161.4271
2620.000000	91.421	-164.0676
2650.000000	91.281	-165.7931
2690.000000	91.053	-167.7051
2720.000000	90.866	-168.8487
2760.000000	90.612	-170.0812
2800.000000	90.362	-171.0022
2850.000000	90.054	-171.7248
2900.000000	89.754	-171.9977
2950.000000	89.472	-171.9091
3000.000000	89.227	-171.5084
3040.000000	89.067	-171.0445
3070.000000	88.960	-170.6470
3110.000000	88.820	-170.0498
3150.000000	88.689	-169.3418
3200.000000	88.546	-168.2594
3250.000000	88.441	-167.0280
3300.000000	88.382	-165.6945
3350.000000	88.364	-164.3775
3400.000000	88.390	-163.1296
3450.000000	88.435	-161.9675
3500.000000	88.489	-160.9583
3550.000000	88.559	-159.9985
3600.000000	88.635	-158.9805
3650.000000	88.729	-157.9585
3700.000000	88.850	-156.9615
3750.000000	89.010	-156.0125
3820.000000	89.285	-154.9014
3870.000000	89.506	-154.3139
3950.000000	89.911	-153.8172
4000.000000	90.182	-153.8314
4060.000000	90.524	-154.2545
4120.000000	90.868	-155.1704
4180.000000	91.198	-156.5360
4250.000000	91.546	-158.6960
4310.000000	91.785	-161.0614
4370.000000	91.961	-163.8249
4440.000000	92.066	-167.3535
4500.000000	92.062	-170.4540
4550.000000	92.000	-172.9976
4620.000000	91.835	-176.3908
4680.000000	91.635	-179.1330
4750.000000	91.343	177.8893
4820.000000	90.995	175.2123
4870.000000	90.714	173.4877
4940.000000	90.272	171.3221
5000.000000	89.853	169.7631
5080.000000	89.257	168.2552
5150.000000	88.707	167.5001
5220.000000	88.144	167.2004
5300.000000	87.514	167.3902
5380.000000	86.908	168.2627
5450.000000	86.407	169.4543
5520.000000	85.939	170.9467
5600.000000	85.450	173.0329
5700.000000	84.906	175.9982
5800.000000	84.451	179.3293
5900.000000	84.092	-177.0099
6000.000000	83.827	-173.1560
6080.000000	83.672	-170.0387
6150.000000	83.590	-167.2374
6220.000000	83.560	-164.3990
6300.000000	83.570	-161.2490
6400.000000	83.648	-157.4572
6500.000000	83.804	-153.7539
6600.000000	84.035	-150.1573
6700.000000	84.352	-146.7753
6800.000000	84.757	-143.7134
6900.000000	85.243	-141.0283
7000.000000	85.810	-138.8055
7100.000000	86.455	-137.1062
7200.000000	87.167	-136.0983
7300.000000	87.941	-135.9091
7400.000000	88.769	-136.7169
7500.000000	89.620	-138.6665
7620.000000	90.621	-142.8099
7750.000000	91.581	-149.8272
7880.000000	92.274	-159.3864
8000.000000	92.543	-170.0328
8120.000000	92.382	178.6244
8250.000000	91.730	166.9229
8380.000000	90.672	156.9641
8500.000000	89.454	149.7878
8620.000000	88.119	144.5370
8750.000000	86.635	140.7442
8850.000000	85.503	138.9671
9000.000000	83.886	137.8414
9120.000000	82.690	137.9046
9250.000000	81.492	138.6804
9380.000000	80.409	140.1773
9500.000000	79.516	142.0643
9620.000000	78.716	144.2501
9750.000000	77.967	146.7673
9880.000000	77.328	149.5268
10000.000000	76.836	152.3919
10150.000000	76.371	156.1245
10300.000000	76.031	159.7159
10440.000000	75.835	163.0397
10600.000000	75.800	166.8046
10750.000000	75.917	170.2189
10900.000000	76.149	173.5214
11060.000000	76.533	176.8707
11200.000000	77.001	179.5606
11380.000000	77.766	-177.6108
11500.000000	78.374	-176.2807
11720.000000	79.656	-175.1424
11800.000000	80.161	-175.2713
12060.000000	81.799	-178.4976
12200.000000	82.568	177.9728
12410.000000	83.428	170.8225
12500.000000	83.666	167.3583
12650.000000	83.885	161.5662
12800.000000	83.904	156.1631
13150.000000	83.430	145.6649
13200.000000	83.318	144.3533
13400.000000	82.748	139.4564
13600.000000	81.951	135.1968
13800.000000	80.906	132.0810
14000.000000	79.628	130.8251
14300.000000	77.459	133.1311
14500.000000	76.013	137.4068
14750.000000	74.357	145.0406
15000.000000	72.924	154.7228
15250.000000	71.749	165.8021
15500.000000	70.923	177.6472
15750.000000	70.467	-169.8398
16000.000000	70.394	-157.8322
16250.000000	70.797	-146.7255
16500.000000	71.787	-137.5874
16750.000000	73.280	-133.1727
17000.000000	74.681	-137.4747
17250.000000	75.007	-150.5387
17500.000000	73.697	-163.4798
17750.000000	71.135	-167.5633
18000.000000	68.227	-163.0259
18250.000000	65.622	-153.9792
18500.000000	63.522	-142.3415
18750.000000	61.927	-132.7044
19000.000000	60.578	-154.4646
19250.000000	59.407	28.4224
19500.000000	58.591	-63.2157
19750.000000	58.049	-153.5746
20000.000000	57.807	17.8466
