* Measurement data measured by REW V5.20.13
* Source: EXCL: Mic in at rear panel (Pink)(Realtek(R) Audio), MICROPHONE (마스), L, volume: 1.000
* Format: 256k Log Swept Sine, 1 sweep at -12.0 dBFS with no timing reference
* Dated: 2022. 12. 28 오후 1:20:06
* REW Settings:
*  C-weighting compensation: Off
*  Target level: 75.0 dB
* Note: 
* Measurement: L_Comply
* Smoothing: 1/24 octave
* Frequency Step: 1/48 octave
* Start Frequency: 20.300 Hz
*
* Freq(Hz)	SPL(dB)	Phase(degrees)
20.299999	88.541	-178.2680
20.600000	88.548	-178.5212
20.900000	88.562	-178.9729
21.200001	88.574	-179.4056
21.400000	88.580	-179.6936
21.799999	88.586	179.6994
22.000000	88.586	179.3750
22.400000	88.580	178.7068
22.700001	88.572	178.2088
23.000000	88.564	177.7206
23.299999	88.559	177.2357
23.600000	88.559	176.7436
24.000000	88.564	176.0619
24.299999	88.571	175.5309
24.700001	88.579	174.8114
25.000000	88.584	174.2795
25.400000	88.590	173.5979
25.799999	88.597	172.9527
26.200001	88.606	172.3352
26.500000	88.614	171.8843
26.900000	88.622	171.2971
27.200001	88.625	170.8676
27.600000	88.627	170.3083
28.000000	88.627	169.7579
28.500000	88.623	169.0744
29.000000	88.614	168.3987
29.500000	88.599	167.7397
30.000000	88.582	167.1013
30.400000	88.568	166.6024
30.700001	88.558	166.2321
31.100000	88.547	165.7358
31.500000	88.539	165.2264
32.000000	88.529	164.5576
32.500000	88.518	163.8592
33.000000	88.504	163.1639
33.500000	88.490	162.4987
34.000000	88.480	161.8623
34.500000	88.471	161.2386
35.000000	88.460	160.6260
35.500000	88.449	160.0391
36.000000	88.438	159.4846
36.500000	88.430	158.9456
37.000000	88.426	158.3906
37.500000	88.420	157.8000
38.200001	88.399	156.9337
38.700001	88.375	156.3302
39.500000	88.330	155.4579
40.000000	88.307	154.9514
40.599998	88.286	154.3289
41.200001	88.266	153.6741
41.799999	88.243	153.0280
42.500000	88.218	152.3154
43.099998	88.204	151.6953
43.700001	88.186	151.0441
44.400002	88.156	150.3205
45.000000	88.129	149.7803
45.500000	88.114	149.3472
46.200001	88.098	148.6861
46.799999	88.078	148.0714
47.500000	88.046	147.3703
48.200001	88.014	146.7061
48.700001	87.993	146.2396
49.400002	87.965	145.5934
50.000000	87.944	145.0442
50.799999	87.919	144.2839
51.500000	87.893	143.5920
52.200001	87.862	142.9317
53.000000	87.828	142.2456
53.799999	87.802	141.5716
54.500000	87.777	140.9562
55.200001	87.748	140.3357
56.000000	87.712	139.6482
57.000000	87.668	138.8265
58.000000	87.625	138.0152
59.000000	87.579	137.1896
60.000000	87.528	136.3934
60.799999	87.490	135.7759
61.500000	87.461	135.2249
62.200001	87.430	134.6631
63.000000	87.392	134.0283
64.000000	87.345	133.2680
65.000000	87.304	132.5276
66.000000	87.266	131.7748
67.000000	87.222	131.0378
68.000000	87.179	130.3225
69.000000	87.131	129.6060
70.000000	87.080	128.9300
71.000000	87.033	128.2791
72.000000	86.990	127.5898
73.000000	86.943	126.8835
74.000000	86.893	126.2054
75.000000	86.844	125.5549
76.199997	86.791	124.7854
77.500000	86.737	123.9376
78.800003	86.677	123.1125
80.000000	86.626	122.3942
81.199997	86.577	121.6659
82.500000	86.526	120.9066
83.800003	86.483	120.1403
85.000000	86.440	119.3652
86.199997	86.387	118.6128
87.500000	86.331	117.8502
88.500000	86.290	117.2528
90.000000	86.224	116.3502
91.199997	86.168	115.6591
92.500000	86.112	114.9456
93.800003	86.058	114.2313
95.000000	86.010	113.6101
96.199997	85.971	112.9838
97.500000	85.925	112.2645
98.800003	85.871	111.5892
100.000000	85.824	111.0454
101.500000	85.774	110.3543
103.000000	85.720	109.6255
104.400002	85.663	108.9286
106.000000	85.591	108.1246
107.500000	85.527	107.3912
109.000000	85.475	106.6582
110.599998	85.424	105.8611
112.000000	85.375	105.2215
113.800003	85.316	104.4517
115.000000	85.273	103.9095
117.199997	85.190	102.8644
118.000000	85.160	102.4705
120.599998	85.072	101.3003
122.000000	85.040	100.7524
124.099998	84.990	99.9435
125.000000	84.962	99.5974
126.500000	84.908	99.0358
128.000000	84.853	98.4723
131.500000	84.740	97.0199
132.000000	84.725	96.8204
134.000000	84.674	96.0542
136.000000	84.622	95.3270
138.000000	84.567	94.6199
140.000000	84.504	93.8887
143.000000	84.410	92.8427
145.000000	84.364	92.1621
147.500000	84.310	91.2782
150.000000	84.240	90.4660
152.500000	84.175	89.6111
155.000000	84.108	88.6840
157.500000	84.049	87.7996
160.000000	83.993	86.9330
162.500000	83.936	86.1136
165.000000	83.884	85.3849
167.500000	83.837	84.7254
170.000000	83.779	84.0618
172.500000	83.712	83.3471
175.000000	83.654	82.5805
177.500000	83.607	81.7736
180.000000	83.552	81.0721
182.500000	83.494	80.5007
185.000000	83.437	79.9193
187.500000	83.389	79.2740
190.000000	83.349	78.6005
192.500000	83.305	77.9605
195.000000	83.258	77.3478
197.500000	83.215	76.7343
200.000000	83.175	76.1324
203.000000	83.127	75.4330
206.000000	83.078	74.6895
209.000000	83.031	73.9301
212.000000	82.988	73.2284
214.000000	82.961	72.7878
218.000000	82.914	71.9706
220.000000	82.891	71.5782
224.000000	82.835	70.7594
227.000000	82.789	70.1366
230.000000	82.749	69.5493
233.000000	82.712	68.9421
236.000000	82.678	68.3269
240.000000	82.638	67.5338
243.000000	82.597	66.9736
247.000000	82.548	66.2869
250.000000	82.526	65.7581
254.000000	82.489	65.0799
258.000000	82.440	64.4509
262.000000	82.392	63.8568
265.000000	82.362	63.3881
269.000000	82.326	62.7308
272.000000	82.299	62.2476
276.000000	82.265	61.6038
280.000000	82.234	60.9928
285.000000	82.197	60.3043
290.000000	82.166	59.6841
295.000000	82.134	59.0227
300.000000	82.104	58.3413
304.000000	82.083	57.8340
307.000000	82.067	57.4597
311.000000	82.044	56.9788
315.000000	82.024	56.5028
320.000000	82.003	55.9313
325.000000	81.982	55.3412
330.000000	81.962	54.7719
335.000000	81.948	54.2613
340.000000	81.935	53.7327
345.000000	81.912	53.2198
350.000000	81.889	52.7151
355.000000	81.870	52.2030
360.000000	81.848	51.7328
365.000000	81.831	51.3286
370.000000	81.811	50.9387
375.000000	81.789	50.5572
382.000000	81.770	50.0052
387.000000	81.765	49.5919
395.000000	81.738	48.9027
400.000000	81.724	48.5119
406.000000	81.718	48.1024
412.000000	81.708	47.6761
418.000000	81.690	47.2966
425.000000	81.670	46.8650
431.000000	81.660	46.4370
437.000000	81.660	46.0347
444.000000	81.665	45.6729
450.000000	81.665	45.4056
455.000000	81.664	45.1617
462.000000	81.658	44.8192
468.000000	81.654	44.5477
475.000000	81.651	44.1953
482.000000	81.650	43.8229
487.000000	81.649	43.5816
494.000000	81.652	43.3045
500.000000	81.662	43.1003
508.000000	81.678	42.8129
515.000000	81.692	42.5621
522.000000	81.703	42.3134
530.000000	81.706	41.9993
538.000000	81.709	41.6982
545.000000	81.721	41.4759
552.000000	81.741	41.3214
560.000000	81.760	41.1540
570.000000	81.782	40.8870
580.000000	81.813	40.6675
590.000000	81.839	40.4641
600.000000	81.860	40.2410
608.000000	81.881	40.0583
615.000000	81.900	39.9091
622.000000	81.918	39.7609
630.000000	81.944	39.6329
640.000000	81.979	39.5467
650.000000	82.008	39.4503
660.000000	82.038	39.3121
670.000000	82.070	39.1863
680.000000	82.104	39.1241
690.000000	82.139	39.0144
700.000000	82.169	38.8940
710.000000	82.207	38.8593
720.000000	82.259	38.8489
730.000000	82.305	38.8214
740.000000	82.341	38.7807
750.000000	82.381	38.7576
762.000000	82.436	38.7890
775.000000	82.500	38.8115
788.000000	82.571	38.8452
800.000000	82.643	38.8829
812.000000	82.712	38.9067
825.000000	82.788	38.9497
838.000000	82.872	38.9915
850.000000	82.956	39.0149
862.000000	83.043	39.0099
875.000000	83.138	38.9939
885.000000	83.214	38.9824
900.000000	83.332	38.9750
912.000000	83.427	38.9650
925.000000	83.534	38.9180
938.000000	83.644	38.8415
950.000000	83.750	38.7422
962.000000	83.858	38.6423
975.000000	83.975	38.5121
988.000000	84.090	38.3398
1000.000000	84.195	38.1535
1015.000000	84.332	37.8574
1030.000000	84.473	37.5455
1044.000000	84.603	37.2492
1060.000000	84.745	36.8676
1075.000000	84.871	36.4458
1090.000000	85.000	35.9801
1106.000000	85.145	35.4845
1120.000000	85.267	35.0384
1138.000000	85.417	34.4292
1150.000000	85.516	34.0204
1172.000000	85.696	33.2499
1180.000000	85.758	32.9595
1206.000000	85.951	31.9842
1220.000000	86.050	31.4626
1241.000000	86.190	30.6922
1250.000000	86.249	30.3569
1265.000000	86.342	29.8007
1280.000000	86.431	29.2648
1315.000000	86.635	28.0087
1320.000000	86.663	27.8287
1340.000000	86.770	27.1406
1360.000000	86.872	26.4834
1380.000000	86.970	25.8416
1400.000000	87.068	25.2286
1430.000000	87.221	24.3511
1450.000000	87.321	23.7721
1475.000000	87.441	23.0775
1500.000000	87.564	22.3913
1525.000000	87.691	21.7033
1550.000000	87.814	21.0320
1575.000000	87.940	20.3901
1600.000000	88.066	19.7478
1625.000000	88.190	19.1161
1650.000000	88.316	18.4781
1675.000000	88.443	17.8397
1700.000000	88.570	17.1935
1725.000000	88.697	16.5241
1750.000000	88.825	15.8482
1775.000000	88.954	15.1642
1800.000000	89.082	14.4600
1825.000000	89.207	13.7401
1850.000000	89.332	12.9987
1875.000000	89.459	12.2192
1900.000000	89.585	11.4153
1925.000000	89.710	10.5900
1950.000000	89.832	9.7260
1975.000000	89.951	8.8280
2000.000000	90.065	7.9055
2030.000000	90.197	6.7626
2060.000000	90.323	5.5723
2090.000000	90.440	4.3580
2120.000000	90.549	3.1191
2140.000000	90.618	2.2756
2180.000000	90.745	0.5483
2200.000000	90.801	-0.3339
2240.000000	90.897	-2.1166
2270.000000	90.956	-3.4559
2300.000000	91.004	-4.7953
2330.000000	91.042	-6.1252
2360.000000	91.070	-7.4419
2400.000000	91.088	-9.1700
2430.000000	91.091	-10.4288
2470.000000	91.083	-12.0430
2500.000000	91.067	-13.2125
2540.000000	91.032	-14.7133
2580.000000	90.987	-16.1219
2620.000000	90.932	-17.4343
2650.000000	90.885	-18.3498
2690.000000	90.817	-19.4906
2720.000000	90.762	-20.2806
2760.000000	90.686	-21.2483
2800.000000	90.609	-22.1261
2850.000000	90.513	-23.0989
2900.000000	90.420	-23.9222
2950.000000	90.332	-24.6223
3000.000000	90.252	-25.2131
3040.000000	90.194	-25.6075
3070.000000	90.155	-25.8676
3110.000000	90.107	-26.1743
3150.000000	90.065	-26.4299
3200.000000	90.025	-26.6819
3250.000000	89.999	-26.8826
3300.000000	89.984	-27.0432
3350.000000	89.981	-27.1772
3400.000000	89.994	-27.3070
3450.000000	90.026	-27.4453
3500.000000	90.078	-27.6089
3550.000000	90.141	-27.8109
3600.000000	90.212	-28.0676
3650.000000	90.291	-28.3820
3700.000000	90.377	-28.7588
3750.000000	90.467	-29.2177
3820.000000	90.594	-30.0054
3870.000000	90.678	-30.6932
3950.000000	90.791	-32.0117
4000.000000	90.846	-32.9533
4060.000000	90.891	-34.1840
4120.000000	90.905	-35.4805
4180.000000	90.889	-36.7906
4250.000000	90.828	-38.2590
4310.000000	90.738	-39.4022
4370.000000	90.617	-40.3921
4440.000000	90.453	-41.3298
4500.000000	90.307	-41.9553
4550.000000	90.187	-42.3698
4620.000000	90.025	-42.8304
4680.000000	89.887	-43.1441
4750.000000	89.727	-43.4417
4820.000000	89.563	-43.6523
4870.000000	89.441	-43.7249
4940.000000	89.265	-43.7075
5000.000000	89.115	-43.5762
5080.000000	88.925	-43.2134
5150.000000	88.771	-42.7227
5220.000000	88.637	-42.0977
5300.000000	88.514	-41.2490
5380.000000	88.428	-40.3092
5450.000000	88.383	-39.4670
5520.000000	88.366	-38.6537
5600.000000	88.381	-37.8080
5700.000000	88.446	-36.9797
5800.000000	88.545	-36.5051
5900.000000	88.655	-36.4664
6000.000000	88.750	-36.8928
6080.000000	88.794	-37.5183
6150.000000	88.799	-38.2106
6220.000000	88.769	-38.9763
6300.000000	88.688	-39.8346
6400.000000	88.519	-40.7056
6500.000000	88.295	-41.1797
6600.000000	88.041	-41.1620
6700.000000	87.789	-40.6616
6800.000000	87.570	-39.7473
6900.000000	87.414	-38.4774
7000.000000	87.333	-36.9746
7100.000000	87.325	-35.3918
7200.000000	87.390	-33.8845
7300.000000	87.510	-32.6038
7400.000000	87.669	-31.6357
7500.000000	87.854	-31.0493
7620.000000	88.100	-30.9100
7750.000000	88.352	-31.4648
7880.000000	88.480	-32.6602
8000.000000	88.477	-34.1564
8120.000000	88.369	-35.7885
8250.000000	88.137	-37.4200
8380.000000	87.801	-38.6815
8500.000000	87.424	-39.3652
8620.000000	87.005	-39.5353
8750.000000	86.522	-39.1587
8850.000000	86.146	-38.5078
9000.000000	85.596	-37.0304
9120.000000	85.181	-35.4645
9250.000000	84.765	-33.4421
9380.000000	84.388	-31.1464
9500.000000	84.079	-28.8648
9620.000000	83.811	-26.4695
9750.000000	83.573	-23.7772
9880.000000	83.387	-21.0503
10000.000000	83.263	-18.5999
10150.000000	83.168	-15.7494
10300.000000	83.123	-13.2954
10440.000000	83.100	-11.4739
10600.000000	83.049	-10.0072
10750.000000	82.923	-9.1521
10900.000000	82.669	-8.4335
11060.000000	82.237	-7.1061
11200.000000	81.763	-4.7615
11380.000000	81.223	0.4181
11500.000000	81.064	4.8206
11720.000000	81.319	12.4689
11800.000000	81.540	14.5541
12060.000000	82.339	17.8906
12200.000000	82.672	17.9058
12410.000000	82.955	16.6200
12500.000000	83.004	15.7784
12650.000000	83.008	14.0857
12800.000000	82.917	12.0289
13150.000000	82.245	6.1741
13200.000000	82.090	5.3063
13400.000000	81.309	2.0768
13600.000000	80.274	-0.2678
13800.000000	79.037	-1.0786
14000.000000	77.687	-0.0239
14300.000000	75.618	4.9218
14500.000000	74.300	10.2382
14750.000000	72.809	19.0709
15000.000000	71.611	30.3459
15250.000000	70.952	43.6122
15500.000000	71.183	56.8785
15750.000000	72.193	66.8243
16000.000000	73.412	71.6540
16250.000000	74.409	72.1161
16500.000000	75.082	70.2386
16750.000000	75.553	67.2034
17000.000000	75.905	62.6297
17250.000000	76.036	55.6556
17500.000000	75.719	46.6819
17750.000000	74.793	37.8781
18000.000000	73.329	31.6080
18250.000000	71.562	28.8413
18500.000000	69.754	29.1178
18750.000000	68.081	31.3813
19000.000000	66.600	34.6479
19250.000000	65.279	38.2836
19500.000000	64.032	41.8750
19750.000000	62.838	44.9651
20000.000000	61.944	46.8856
