* Measurement data measured by REW V5.20.9
* Source: Mic in at rear panel (Pink)(Realtek(R) Audio), MICROPHONE (마스), L, volume: 0.500
* Format: 256k Log Swept Sine, 1 sweep at -12.0 dBFS with no timing reference
* Dated: 2022. 9. 24 오후 10:03:40
* REW Settings:
*  C-weighting compensation: Off
*  Target level: 75.0 dB
* Note: 
* Measurement: 9월 24
* Smoothing: 1/24 octave
* Frequency Step: 1/48 octave
* Start Frequency: 20.300 Hz
*
* Freq(Hz)	SPL(dB)	Phase(degrees)
20.299999	77.582	-159.0743
20.600000	77.600	-159.2679
20.900000	77.633	-159.6103
21.200001	77.660	-159.9288
21.400000	77.675	-160.1336
21.799999	77.700	-160.5554
22.000000	77.711	-160.7814
22.400000	77.731	-161.2619
22.700001	77.743	-161.6413
23.000000	77.755	-162.0332
23.299999	77.767	-162.4341
23.600000	77.779	-162.8412
24.000000	77.798	-163.3878
24.299999	77.814	-163.7957
24.700001	77.838	-164.3314
25.000000	77.857	-164.7251
25.400000	77.884	-165.2393
25.799999	77.913	-165.7415
26.200001	77.941	-166.2307
26.500000	77.961	-166.5858
26.900000	77.985	-167.0387
27.200001	78.000	-167.3612
27.600000	78.017	-167.7717
28.000000	78.032	-168.1688
28.500000	78.048	-168.6547
29.000000	78.062	-169.1289
29.500000	78.073	-169.5940
30.000000	78.082	-170.0623
30.400000	78.089	-170.4445
30.700001	78.092	-170.7337
31.100000	78.097	-171.1174
31.500000	78.101	-171.4983
32.000000	78.109	-171.9792
32.500000	78.117	-172.4755
33.000000	78.126	-172.9783
33.500000	78.136	-173.4653
34.000000	78.147	-173.9215
34.500000	78.159	-174.3501
35.000000	78.173	-174.7623
35.500000	78.188	-175.1683
36.000000	78.203	-175.5725
36.500000	78.216	-175.9762
37.000000	78.226	-176.3792
37.500000	78.233	-176.7789
38.200001	78.236	-177.3228
38.700001	78.236	-177.6993
39.500000	78.237	-178.3108
40.000000	78.237	-178.7110
40.599998	78.233	-179.1965
41.200001	78.228	-179.6632
41.799999	78.226	179.8875
42.500000	78.229	179.3548
43.099998	78.230	178.8860
43.700001	78.229	178.4348
44.400002	78.228	177.9556
45.000000	78.230	177.5679
45.500000	78.233	177.2375
46.200001	78.236	176.7568
46.799999	78.234	176.3427
47.500000	78.229	175.8712
48.200001	78.226	175.4107
48.700001	78.224	175.0841
49.400002	78.224	174.6201
50.000000	78.223	174.2090
50.799999	78.218	173.6558
51.500000	78.212	173.1957
52.200001	78.209	172.7542
53.000000	78.207	172.2366
53.799999	78.200	171.7049
54.500000	78.187	171.2570
55.200001	78.173	170.8327
56.000000	78.159	170.3562
57.000000	78.144	169.7460
58.000000	78.125	169.1254
59.000000	78.105	168.5235
60.000000	78.086	167.9282
60.799999	78.069	167.4317
61.500000	78.052	167.0100
62.200001	78.033	166.6199
63.000000	78.013	166.1864
64.000000	77.986	165.6325
65.000000	77.958	165.0620
66.000000	77.924	164.4637
67.000000	77.881	163.9033
68.000000	77.845	163.3652
69.000000	77.812	162.8045
70.000000	77.780	162.2418
71.000000	77.751	161.6736
72.000000	77.719	161.1182
73.000000	77.684	160.5912
74.000000	77.645	160.0997
75.000000	77.604	159.6432
76.199997	77.553	159.0855
77.500000	77.493	158.4943
78.800003	77.442	157.8641
80.000000	77.384	157.2087
81.199997	77.319	156.6688
82.500000	77.267	156.1257
83.800003	77.211	155.5261
85.000000	77.149	155.0156
86.199997	77.090	154.5163
87.500000	77.022	153.9555
88.500000	76.966	153.5534
90.000000	76.890	152.9823
91.199997	76.830	152.5164
92.500000	76.759	152.0557
93.800003	76.692	151.6645
95.000000	76.636	151.2769
96.199997	76.573	150.8389
97.500000	76.496	150.3800
98.800003	76.419	149.9329
100.000000	76.348	149.5295
101.500000	76.259	149.0509
103.000000	76.169	148.6086
104.400002	76.084	148.2523
106.000000	75.996	147.8830
107.500000	75.917	147.5007
109.000000	75.835	147.1254
110.599998	75.744	146.7570
112.000000	75.661	146.4921
113.800003	75.560	146.1989
115.000000	75.495	145.9678
117.199997	75.370	145.4718
118.000000	75.321	145.2956
120.599998	75.175	144.8808
122.000000	75.112	144.7029
124.099998	75.022	144.4108
125.000000	74.982	144.2849
126.500000	74.915	144.0830
128.000000	74.850	143.8588
131.500000	74.685	143.2732
132.000000	74.661	143.1946
134.000000	74.560	142.8846
136.000000	74.454	142.5785
138.000000	74.343	142.2963
140.000000	74.234	142.0738
143.000000	74.084	141.7474
145.000000	73.980	141.5114
147.500000	73.845	141.2701
150.000000	73.712	141.0659
152.500000	73.583	140.9071
155.000000	73.459	140.7617
157.500000	73.331	140.6065
160.000000	73.201	140.4870
162.500000	73.072	140.4254
165.000000	72.950	140.3884
167.500000	72.827	140.3307
170.000000	72.701	140.2983
172.500000	72.576	140.2836
175.000000	72.451	140.2902
177.500000	72.328	140.3196
180.000000	72.206	140.3556
182.500000	72.082	140.3964
185.000000	71.954	140.4677
187.500000	71.826	140.5601
190.000000	71.698	140.6666
192.500000	71.570	140.8205
195.000000	71.442	141.0517
197.500000	71.316	141.3593
200.000000	71.191	141.7420
203.000000	71.045	142.3524
206.000000	70.920	143.1573
209.000000	70.843	144.1239
212.000000	70.839	145.1099
214.000000	70.878	145.6169
218.000000	70.983	145.8920
220.000000	71.012	145.6800
224.000000	70.987	144.9478
227.000000	70.909	144.4209
230.000000	70.804	144.0491
233.000000	70.688	143.8353
236.000000	70.570	143.7560
240.000000	70.416	143.7745
243.000000	70.301	143.8372
247.000000	70.150	144.0027
250.000000	70.043	144.1804
254.000000	69.909	144.4369
258.000000	69.777	144.7286
262.000000	69.648	145.0603
265.000000	69.553	145.3121
269.000000	69.427	145.6597
272.000000	69.339	145.9160
276.000000	69.231	146.2336
280.000000	69.129	146.5755
285.000000	68.999	147.0656
290.000000	68.870	147.5489
295.000000	68.746	148.0238
300.000000	68.625	148.5211
304.000000	68.532	148.9366
307.000000	68.465	149.2502
311.000000	68.376	149.6721
315.000000	68.286	150.1048
320.000000	68.178	150.6621
325.000000	68.078	151.2195
330.000000	67.982	151.7662
335.000000	67.892	152.3026
340.000000	67.804	152.8259
345.000000	67.709	153.4007
350.000000	67.611	153.9635
355.000000	67.517	154.5149
360.000000	67.431	155.0844
365.000000	67.348	155.6500
370.000000	67.263	156.2373
375.000000	67.180	156.8524
382.000000	67.070	157.7405
387.000000	66.987	158.3882
395.000000	66.858	159.4204
400.000000	66.785	160.0743
406.000000	66.699	160.8735
412.000000	66.621	161.6252
418.000000	66.558	162.3524
425.000000	66.484	163.2112
431.000000	66.413	163.9286
437.000000	66.347	164.6182
444.000000	66.279	165.4179
450.000000	66.219	166.1310
455.000000	66.170	166.7325
462.000000	66.102	167.5983
468.000000	66.050	168.3427
475.000000	65.995	169.1657
482.000000	65.940	169.9875
487.000000	65.902	170.5844
494.000000	65.852	171.4578
500.000000	65.815	172.2129
508.000000	65.769	173.1597
515.000000	65.731	173.9737
522.000000	65.697	174.8111
530.000000	65.660	175.7646
538.000000	65.623	176.6912
545.000000	65.600	177.5052
552.000000	65.583	178.3215
560.000000	65.563	179.2247
570.000000	65.537	-179.6385
580.000000	65.507	-178.4851
590.000000	65.487	-177.3593
600.000000	65.474	-176.2576
608.000000	65.467	-175.3755
615.000000	65.460	-174.6198
622.000000	65.453	-173.8808
630.000000	65.450	-173.0336
640.000000	65.442	-172.0072
650.000000	65.434	-171.0294
660.000000	65.434	-170.0083
670.000000	65.438	-168.9722
680.000000	65.446	-167.9623
690.000000	65.457	-167.0212
700.000000	65.466	-166.0728
710.000000	65.475	-165.0918
720.000000	65.491	-164.1365
730.000000	65.511	-163.2074
740.000000	65.530	-162.2940
750.000000	65.550	-161.3938
762.000000	65.577	-160.3577
775.000000	65.610	-159.2349
788.000000	65.650	-158.1212
800.000000	65.695	-157.1136
812.000000	65.738	-156.0747
825.000000	65.782	-154.9656
838.000000	65.831	-153.9151
850.000000	65.882	-152.9759
862.000000	65.940	-152.0728
875.000000	66.001	-151.0989
885.000000	66.049	-150.3411
900.000000	66.131	-149.2197
912.000000	66.198	-148.3717
925.000000	66.268	-147.5022
938.000000	66.344	-146.6779
950.000000	66.419	-145.9542
962.000000	66.501	-145.2542
975.000000	66.591	-144.5219
988.000000	66.680	-143.8752
1000.000000	66.761	-143.3473
1015.000000	66.847	-142.6838
1030.000000	66.920	-142.0936
1044.000000	66.972	-141.4816
1060.000000	67.031	-140.5461
1075.000000	67.122	-139.6086
1090.000000	67.248	-138.8409
1106.000000	67.395	-138.2277
1120.000000	67.516	-137.8165
1138.000000	67.656	-137.3557
1150.000000	67.739	-137.0690
1172.000000	67.878	-136.5610
1180.000000	67.924	-136.3832
1206.000000	68.073	-135.7957
1220.000000	68.153	-135.4731
1241.000000	68.269	-135.0060
1250.000000	68.317	-134.8115
1265.000000	68.395	-134.4795
1280.000000	68.469	-134.1300
1315.000000	68.626	-133.3312
1320.000000	68.647	-133.2168
1340.000000	68.733	-132.7718
1360.000000	68.819	-132.3347
1380.000000	68.906	-131.8534
1400.000000	68.993	-131.3464
1430.000000	69.121	-130.6347
1450.000000	69.208	-130.1613
1475.000000	69.322	-129.5358
1500.000000	69.438	-128.8830
1525.000000	69.555	-128.2531
1550.000000	69.678	-127.6218
1575.000000	69.801	-126.9820
1600.000000	69.924	-126.3038
1625.000000	70.050	-125.6526
1650.000000	70.181	-125.0452
1675.000000	70.315	-124.4677
1700.000000	70.453	-123.8878
1725.000000	70.599	-123.2853
1750.000000	70.748	-122.6799
1775.000000	70.895	-122.0923
1800.000000	71.044	-121.5537
1825.000000	71.201	-121.0583
1850.000000	71.363	-120.5754
1875.000000	71.528	-120.1143
1900.000000	71.697	-119.6808
1925.000000	71.874	-119.2721
1950.000000	72.056	-118.9165
1975.000000	72.239	-118.6101
2000.000000	72.423	-118.3413
2030.000000	72.648	-118.0817
2060.000000	72.879	-117.8779
2090.000000	73.112	-117.7407
2120.000000	73.354	-117.6683
2140.000000	73.518	-117.6535
2180.000000	73.856	-117.7642
2200.000000	74.027	-117.9024
2240.000000	74.368	-118.3382
2270.000000	74.622	-118.8095
2300.000000	74.872	-119.4042
2330.000000	75.114	-120.1167
2360.000000	75.346	-120.9511
2400.000000	75.642	-122.2377
2430.000000	75.855	-123.3254
2470.000000	76.122	-124.9619
2500.000000	76.304	-126.3125
2540.000000	76.511	-128.2481
2580.000000	76.676	-130.3321
2620.000000	76.806	-132.4971
2650.000000	76.879	-134.1401
2690.000000	76.937	-136.3141
2720.000000	76.954	-137.9147
2760.000000	76.945	-139.9907
2800.000000	76.904	-141.9862
2850.000000	76.815	-144.3499
2900.000000	76.670	-146.5464
2950.000000	76.476	-148.4827
3000.000000	76.240	-150.0365
3040.000000	76.040	-150.9523
3070.000000	75.895	-151.4345
3110.000000	75.722	-151.8450
3150.000000	75.582	-152.1218
3200.000000	75.442	-152.5132
3250.000000	75.302	-153.0622
3300.000000	75.141	-153.6780
3350.000000	74.959	-154.1457
3400.000000	74.763	-154.3894
3450.000000	74.572	-154.4333
3500.000000	74.399	-154.2998
3550.000000	74.239	-154.0602
3600.000000	74.090	-153.7434
3650.000000	73.953	-153.3217
3700.000000	73.823	-152.7896
3750.000000	73.697	-152.1714
3820.000000	73.540	-151.1759
3870.000000	73.443	-150.3930
3950.000000	73.308	-149.0209
4000.000000	73.237	-148.1064
4060.000000	73.168	-146.9700
4120.000000	73.115	-145.7987
4180.000000	73.082	-144.5983
4250.000000	73.062	-143.1732
4310.000000	73.060	-141.9309
4370.000000	73.063	-140.6645
4440.000000	73.079	-139.1623
4500.000000	73.111	-137.8758
4550.000000	73.151	-136.7973
4620.000000	73.227	-135.3048
4680.000000	73.310	-134.0724
4750.000000	73.424	-132.6667
4820.000000	73.556	-131.2612
4870.000000	73.662	-130.2444
4940.000000	73.829	-128.8163
5000.000000	73.995	-127.6032
5080.000000	74.254	-126.0076
5150.000000	74.525	-124.6582
5220.000000	74.839	-123.4077
5300.000000	75.250	-122.1573
5380.000000	75.714	-121.1635
5450.000000	76.162	-120.5622
5520.000000	76.647	-120.2603
5600.000000	77.242	-120.3158
5700.000000	78.043	-121.0770
5800.000000	78.902	-122.8205
5900.000000	79.787	-125.8053
6000.000000	80.638	-130.2755
6080.000000	81.244	-135.0231
6150.000000	81.677	-139.9659
6220.000000	81.988	-145.4754
6300.000000	82.169	-152.1570
6400.000000	82.136	-160.4709
6500.000000	81.852	-168.1388
6600.000000	81.379	-174.7908
6700.000000	80.779	179.7263
6800.000000	80.118	175.4066
6900.000000	79.455	172.1617
7000.000000	78.823	169.8587
7100.000000	78.235	168.3748
7200.000000	77.712	167.5312
7300.000000	77.265	167.0966
7400.000000	76.887	166.8829
7500.000000	76.569	166.8078
7620.000000	76.270	166.8285
7750.000000	76.036	166.9047
7880.000000	75.818	166.9388
8000.000000	75.636	166.9147
8120.000000	75.502	166.8409
8250.000000	75.424	166.6218
8380.000000	75.417	166.1322
8500.000000	75.476	165.2574
8620.000000	75.578	163.7953
8750.000000	75.704	161.3773
8850.000000	75.784	158.7938
9000.000000	75.812	153.7197
9120.000000	75.702	148.8356
9250.000000	75.407	143.0844
9380.000000	74.912	137.2807
9500.000000	74.284	132.2654
9620.000000	73.515	127.8896
9750.000000	72.555	124.1198
9880.000000	71.508	121.5111
10000.000000	70.505	120.1707
10150.000000	69.265	119.8504
10300.000000	68.101	120.7589
10440.000000	67.109	122.4032
10600.000000	66.093	124.9370
10750.000000	65.248	127.7035
10900.000000	64.492	130.7286
11060.000000	63.775	134.1896
11200.000000	63.218	137.3901
11380.000000	62.595	141.7052
11500.000000	62.238	144.6733
11720.000000	61.697	150.2121
11800.000000	61.538	152.2386
12060.000000	61.160	158.9035
12200.000000	61.041	162.5096
12410.000000	60.959	167.8468
12500.000000	60.964	170.0828
12650.000000	61.041	173.7130
12800.000000	61.211	177.1473
13150.000000	62.010	-175.7347
13200.000000	62.179	-174.8312
13400.000000	63.028	-171.6856
13600.000000	64.221	-169.8150
13800.000000	65.812	-170.4155
14000.000000	67.679	-175.5381
14300.000000	69.869	162.7859
14500.000000	69.935	140.7184
14750.000000	68.094	117.4184
15000.000000	65.062	106.3948
15250.000000	62.056	104.1263
15500.000000	59.615	106.0901
15750.000000	57.760	109.9565
16000.000000	56.346	114.7485
16250.000000	55.243	120.1307
16500.000000	54.394	125.7255
16750.000000	53.761	131.4012
17000.000000	53.315	136.9501
17250.000000	53.048	142.2386
17500.000000	52.968	147.1016
17750.000000	53.047	151.3605
18000.000000	53.243	154.6472
18250.000000	53.534	156.4761
18500.000000	53.856	156.3418
18750.000000	54.099	153.5611
19000.000000	54.081	147.1030
19250.000000	53.591	127.7924
19500.000000	52.479	2.2294
19750.000000	50.567	-102.8115
20000.000000	47.231	131.5869
