* Measurement data measured by REW V5.20.13
* Source: EXCL: Mic in at rear panel (Pink)(Realtek(R) Audio), MICROPHONE (마스), L, volume: 0.500
* Format: 256k Log Swept Sine, 1 sweep at -12.0 dBFS with no timing reference
* Dated: 2022. 10. 1 오후 6:09:25
* REW Settings:
*  C-weighting compensation: Off
*  Target level: 75.0 dB
* Note: 
* Measurement: L_Sedna
* Smoothing: 1/24 octave
* Frequency Step: 1/48 octave
* Start Frequency: 20.300 Hz
*
* Freq(Hz)	SPL(dB)	Phase(degrees)
20.299999	71.477	-147.8228
20.600000	71.510	-147.8726
20.900000	71.586	-148.0228
21.200001	71.674	-148.3568
21.400000	71.727	-148.7298
21.799999	71.793	-149.7729
22.000000	71.794	-150.3587
22.400000	71.730	-151.3721
22.700001	71.646	-151.7824
23.000000	71.574	-151.8210
23.299999	71.548	-151.6325
23.600000	71.577	-151.4379
24.000000	71.682	-151.5037
24.299999	71.770	-151.9098
24.700001	71.851	-152.7863
25.000000	71.869	-153.4655
25.400000	71.871	-154.1407
25.799999	71.881	-154.5178
26.200001	71.932	-154.8337
26.500000	71.986	-155.1968
26.900000	72.046	-155.9085
27.200001	72.062	-156.5222
27.600000	72.043	-157.2455
28.000000	72.002	-157.7021
28.500000	71.967	-157.9618
29.000000	71.958	-158.1538
29.500000	71.950	-158.3462
30.000000	71.946	-158.3798
30.400000	71.975	-158.3190
30.700001	72.023	-158.3488
31.100000	72.102	-158.6773
31.500000	72.157	-159.3607
32.000000	72.141	-160.3698
32.500000	72.050	-160.9574
33.000000	71.982	-160.9233
33.500000	72.004	-160.7268
34.000000	72.082	-160.9445
34.500000	72.125	-161.5963
35.000000	72.099	-162.2343
35.500000	72.046	-162.4879
36.000000	72.023	-162.4377
36.500000	72.043	-162.3856
37.000000	72.076	-162.4949
37.500000	72.099	-162.6990
38.200001	72.119	-162.9735
38.700001	72.135	-163.1668
39.500000	72.166	-163.5721
40.000000	72.187	-163.9449
40.599998	72.195	-164.5716
41.200001	72.156	-165.2431
41.799999	72.084	-165.6100
42.500000	72.045	-165.5671
43.099998	72.092	-165.6467
43.700001	72.143	-166.1862
44.400002	72.124	-166.9430
45.000000	72.076	-167.1297
45.500000	72.075	-167.0041
46.200001	72.148	-166.9682
46.799999	72.211	-167.3186
47.500000	72.222	-167.7666
48.200001	72.215	-167.8226
48.700001	72.241	-167.7309
49.400002	72.313	-167.8643
50.000000	72.350	-168.3403
50.799999	72.308	-168.9685
51.500000	72.246	-169.0966
52.200001	72.222	-169.0845
53.000000	72.214	-169.2347
53.799999	72.209	-169.3629
54.500000	72.235	-169.5440
55.200001	72.256	-169.9621
56.000000	72.243	-170.3242
57.000000	72.281	-170.4374
58.000000	72.336	-171.0290
59.000000	72.300	-171.4826
60.000000	72.273	-171.4691
60.799999	72.274	-171.4752
61.500000	72.279	-171.5412
62.200001	72.283	-171.6981
63.000000	72.271	-171.9191
64.000000	72.257	-172.0562
65.000000	72.276	-172.2037
66.000000	72.302	-172.4851
67.000000	72.315	-172.7546
68.000000	72.324	-172.8965
69.000000	72.336	-173.0556
70.000000	72.319	-173.2925
71.000000	72.277	-173.4396
72.000000	72.218	-173.6141
73.000000	72.141	-173.5436
74.000000	72.138	-173.3163
75.000000	72.184	-173.5809
76.199997	72.205	-174.1980
77.500000	72.214	-174.7206
78.800003	72.235	-174.9893
80.000000	72.274	-175.2120
81.199997	72.288	-175.4658
82.500000	72.277	-175.5588
83.800003	72.274	-175.6000
85.000000	72.266	-175.7055
86.199997	72.263	-175.8178
87.500000	72.266	-175.9806
88.500000	72.281	-176.1252
90.000000	72.304	-176.5300
91.199997	72.305	-176.8552
92.500000	72.298	-177.2088
93.800003	72.274	-177.5103
95.000000	72.250	-177.6649
96.199997	72.237	-177.7526
97.500000	72.232	-177.8323
98.800003	72.232	-177.8642
100.000000	72.236	-177.9235
101.500000	72.221	-177.9138
103.000000	72.240	-177.8724
104.400002	72.248	-178.2165
106.000000	72.206	-178.6050
107.500000	72.171	-178.8048
109.000000	72.160	-179.0119
110.599998	72.158	-179.3014
112.000000	72.161	-179.5595
113.800003	72.170	-179.8393
115.000000	72.176	-179.9368
117.199997	72.208	-179.8014
118.000000	72.236	-179.7495
120.599998	72.279	179.6799
122.000000	72.215	179.3685
124.099998	72.139	179.3197
125.000000	72.130	179.2909
126.500000	72.125	179.1395
128.000000	72.114	178.9833
131.500000	72.096	178.6813
132.000000	72.093	178.6138
134.000000	72.083	178.3204
136.000000	72.090	178.0581
138.000000	72.112	177.8317
140.000000	72.114	177.7401
143.000000	72.071	178.0486
145.000000	72.045	178.1236
147.500000	71.991	177.8304
150.000000	71.977	177.2907
152.500000	71.990	176.6368
155.000000	71.984	176.3685
157.500000	71.977	176.4338
160.000000	71.955	176.4545
162.500000	71.929	176.3283
165.000000	71.914	176.1672
167.500000	71.912	176.0480
170.000000	71.905	175.8495
172.500000	71.872	175.5815
175.000000	71.843	175.4029
177.500000	71.827	175.3043
180.000000	71.801	175.3210
182.500000	71.777	175.3261
185.000000	71.761	175.2090
187.500000	71.744	175.0270
190.000000	71.716	174.8816
192.500000	71.689	174.7596
195.000000	71.675	174.5821
197.500000	71.662	174.3990
200.000000	71.648	174.3004
203.000000	71.632	174.1160
206.000000	71.605	173.8729
209.000000	71.585	173.7147
212.000000	71.571	173.6440
214.000000	71.561	173.6218
218.000000	71.544	173.4962
220.000000	71.525	173.3788
224.000000	71.473	173.1550
227.000000	71.444	172.9692
230.000000	71.433	172.9039
233.000000	71.428	172.8592
236.000000	71.402	172.8538
240.000000	71.367	172.8460
243.000000	71.321	172.7305
247.000000	71.245	172.5023
250.000000	71.200	172.3446
254.000000	71.155	172.2328
258.000000	71.131	172.1779
262.000000	71.116	172.1165
265.000000	71.091	172.1033
269.000000	71.042	172.0454
272.000000	70.999	171.9216
276.000000	70.946	171.7637
280.000000	70.917	171.6833
285.000000	70.877	171.5361
290.000000	70.830	171.3286
295.000000	70.792	171.0813
300.000000	70.727	171.1306
304.000000	70.670	171.1580
307.000000	70.629	171.0677
311.000000	70.573	170.9083
315.000000	70.507	170.8286
320.000000	70.410	170.8608
325.000000	70.307	170.9312
330.000000	70.192	171.0548
335.000000	70.068	171.3473
340.000000	69.944	172.0101
345.000000	69.860	172.9468
350.000000	69.843	173.9252
355.000000	69.895	174.6354
360.000000	69.970	174.9612
365.000000	70.018	175.2048
370.000000	70.043	175.3262
375.000000	70.056	175.3293
382.000000	70.042	175.2854
387.000000	70.023	175.2698
395.000000	69.966	175.2202
400.000000	69.920	175.1909
406.000000	69.872	175.1612
412.000000	69.826	175.0983
418.000000	69.788	175.0846
425.000000	69.741	175.2370
431.000000	69.700	175.4373
437.000000	69.661	175.5880
444.000000	69.621	175.7715
450.000000	69.581	175.9436
455.000000	69.544	176.1082
462.000000	69.495	176.3484
468.000000	69.446	176.5104
475.000000	69.398	176.6319
482.000000	69.366	176.7058
487.000000	69.339	176.8434
494.000000	69.302	177.1239
500.000000	69.256	177.3701
508.000000	69.174	177.6985
515.000000	69.113	177.9749
522.000000	69.062	178.2173
530.000000	69.017	178.5658
538.000000	68.979	178.8639
545.000000	68.939	179.1090
552.000000	68.902	179.4580
560.000000	68.850	179.8127
570.000000	68.771	-179.7402
580.000000	68.722	-179.3098
590.000000	68.682	-178.7926
600.000000	68.633	-178.3293
608.000000	68.561	-177.8132
615.000000	68.500	-177.3909
622.000000	68.451	-177.0338
630.000000	68.402	-176.5862
640.000000	68.352	-175.9650
650.000000	68.303	-175.4204
660.000000	68.245	-174.8589
670.000000	68.206	-174.1105
680.000000	68.177	-173.4137
690.000000	68.140	-172.8371
700.000000	68.105	-172.2241
710.000000	68.059	-171.5781
720.000000	68.008	-170.9318
730.000000	67.969	-170.2341
740.000000	67.942	-169.4714
750.000000	67.916	-168.6848
762.000000	67.882	-167.7882
775.000000	67.857	-166.8057
788.000000	67.832	-165.8316
800.000000	67.806	-165.0781
812.000000	67.797	-164.2818
825.000000	67.797	-163.1728
838.000000	67.790	-162.0841
850.000000	67.793	-161.2361
862.000000	67.798	-160.4104
875.000000	67.800	-159.4292
885.000000	67.811	-158.6317
900.000000	67.852	-157.4954
912.000000	67.885	-156.6582
925.000000	67.915	-155.7473
938.000000	67.952	-154.8071
950.000000	67.993	-153.9775
962.000000	68.047	-153.1796
975.000000	68.107	-152.3575
988.000000	68.151	-151.5590
1000.000000	68.190	-150.8151
1015.000000	68.269	-149.9340
1030.000000	68.356	-149.0733
1044.000000	68.430	-148.3682
1060.000000	68.510	-147.6902
1075.000000	68.589	-147.0193
1090.000000	68.681	-146.3662
1106.000000	68.794	-145.6909
1120.000000	68.889	-145.1138
1138.000000	68.997	-144.4475
1150.000000	69.072	-144.0240
1172.000000	69.210	-143.2770
1180.000000	69.253	-143.0265
1206.000000	69.394	-142.2498
1220.000000	69.483	-141.7926
1241.000000	69.605	-141.1145
1250.000000	69.652	-140.8521
1265.000000	69.727	-140.4435
1280.000000	69.801	-140.0603
1315.000000	69.981	-139.0637
1320.000000	70.006	-138.9116
1340.000000	70.113	-138.3005
1360.000000	70.214	-137.6977
1380.000000	70.303	-137.1116
1400.000000	70.408	-136.5528
1430.000000	70.586	-135.6377
1450.000000	70.695	-134.9886
1475.000000	70.838	-134.1782
1500.000000	71.001	-133.4206
1525.000000	71.173	-132.7140
1550.000000	71.347	-132.0403
1575.000000	71.533	-131.3747
1600.000000	71.718	-130.7443
1625.000000	71.913	-130.1797
1650.000000	72.126	-129.6548
1675.000000	72.340	-129.2040
1700.000000	72.551	-128.8686
1725.000000	72.758	-128.6526
1750.000000	72.966	-128.5222
1775.000000	73.168	-128.4394
1800.000000	73.365	-128.4399
1825.000000	73.557	-128.4764
1850.000000	73.743	-128.5620
1875.000000	73.922	-128.7050
1900.000000	74.095	-128.8898
1925.000000	74.263	-129.1257
1950.000000	74.421	-129.3725
1975.000000	74.573	-129.6161
2000.000000	74.720	-129.8737
2030.000000	74.890	-130.2100
2060.000000	75.053	-130.5470
2090.000000	75.209	-130.8796
2120.000000	75.366	-131.2130
2140.000000	75.469	-131.4312
2180.000000	75.668	-131.8692
2200.000000	75.765	-132.1009
2240.000000	75.956	-132.5936
2270.000000	76.098	-132.9617
2300.000000	76.240	-133.3415
2330.000000	76.379	-133.7362
2360.000000	76.518	-134.1357
2400.000000	76.701	-134.7043
2430.000000	76.838	-135.1871
2470.000000	77.018	-135.8801
2500.000000	77.153	-136.4150
2540.000000	77.329	-137.1572
2580.000000	77.499	-137.9570
2620.000000	77.664	-138.8052
2650.000000	77.783	-139.4851
2690.000000	77.936	-140.4386
2720.000000	78.044	-141.1900
2760.000000	78.177	-142.2326
2800.000000	78.300	-143.3096
2850.000000	78.440	-144.6840
2900.000000	78.563	-146.1058
2950.000000	78.667	-147.5638
3000.000000	78.747	-149.0237
3040.000000	78.796	-150.1724
3070.000000	78.823	-151.0226
3110.000000	78.847	-152.1178
3150.000000	78.861	-153.1469
3200.000000	78.862	-154.3158
3250.000000	78.855	-155.3066
3300.000000	78.857	-156.1156
3350.000000	78.882	-156.8135
3400.000000	78.936	-157.5397
3450.000000	79.011	-158.4208
3500.000000	79.084	-159.5104
3550.000000	79.131	-160.7224
3600.000000	79.152	-161.9399
3650.000000	79.154	-163.0797
3700.000000	79.141	-164.1062
3750.000000	79.120	-165.0300
3820.000000	79.086	-166.1893
3870.000000	79.059	-166.9495
3950.000000	79.016	-168.0711
4000.000000	78.991	-168.7158
4060.000000	78.967	-169.4611
4120.000000	78.948	-170.2059
4180.000000	78.931	-170.9549
4250.000000	78.915	-171.8437
4310.000000	78.894	-172.6646
4370.000000	78.857	-173.5439
4440.000000	78.791	-174.6171
4500.000000	78.711	-175.5293
4550.000000	78.622	-176.1944
4620.000000	78.475	-176.8632
4680.000000	78.355	-177.1656
4750.000000	78.256	-177.2610
4820.000000	78.206	-177.2691
4870.000000	78.197	-177.3356
4940.000000	78.203	-177.5870
5000.000000	78.218	-177.9652
5080.000000	78.240	-178.6649
5150.000000	78.253	-179.4133
5220.000000	78.256	179.7296
5300.000000	78.243	178.6473
5380.000000	78.217	177.4785
5450.000000	78.179	176.4017
5520.000000	78.127	175.3174
5600.000000	78.050	174.0699
5700.000000	77.929	172.5118
5800.000000	77.777	171.0567
5900.000000	77.606	169.7247
6000.000000	77.419	168.5282
6080.000000	77.261	167.6789
6150.000000	77.118	167.0132
6220.000000	76.975	166.4425
6300.000000	76.814	165.9166
6400.000000	76.626	165.4239
6500.000000	76.459	165.0390
6600.000000	76.308	164.6985
6700.000000	76.169	164.3947
6800.000000	76.046	164.1671
6900.000000	75.955	164.0325
7000.000000	75.907	164.0026
7100.000000	75.902	164.0380
7200.000000	75.947	164.0654
7300.000000	76.047	163.9683
7400.000000	76.194	163.6466
7500.000000	76.388	162.9911
7620.000000	76.684	161.5427
7750.000000	77.040	158.9291
7880.000000	77.307	155.0279
8000.000000	77.411	150.2746
8120.000000	77.331	144.6959
8250.000000	76.996	138.2983
8380.000000	76.397	132.2529
8500.000000	75.647	127.5167
8620.000000	74.764	123.8684
8750.000000	73.717	121.2189
8850.000000	72.883	120.0340
9000.000000	71.646	119.4424
9120.000000	70.698	119.8067
9250.000000	69.730	120.8735
9380.000000	68.827	122.5015
9500.000000	68.044	124.3870
9620.000000	67.307	126.5681
9750.000000	66.568	129.2545
9880.000000	65.895	132.1939
10000.000000	65.324	135.1050
10150.000000	64.674	138.9397
10300.000000	64.101	142.9073
10440.000000	63.627	146.7911
10600.000000	63.141	151.3906
10750.000000	62.739	155.7779
10900.000000	62.404	160.1877
11060.000000	62.128	164.9579
11200.000000	61.945	169.2215
11380.000000	61.777	174.7858
11500.000000	61.712	178.4756
11720.000000	61.691	-174.8398
11800.000000	61.714	-172.4036
12060.000000	61.924	-164.5040
12200.000000	62.121	-160.2782
12410.000000	62.510	-154.0952
12500.000000	62.727	-151.5371
12650.000000	63.171	-147.4216
12800.000000	63.731	-143.5954
13150.000000	65.589	-136.5065
13200.000000	65.925	-135.7719
13400.000000	67.509	-133.9096
13600.000000	69.522	-134.9609
13800.000000	71.710	-141.9976
14000.000000	73.317	-158.0862
14300.000000	73.104	168.9391
14500.000000	71.292	153.6045
14750.000000	68.351	146.0151
15000.000000	65.708	146.2085
15250.000000	63.676	149.9279
15500.000000	62.211	155.2186
15750.000000	61.201	161.3778
16000.000000	60.544	168.0103
16250.000000	60.194	174.7402
16500.000000	60.107	-178.7254
16750.000000	60.280	-172.3667
17000.000000	60.756	-166.4756
17250.000000	61.610	-161.5186
17500.000000	62.902	-158.1066
17750.000000	64.618	-157.6432
18000.000000	66.512	-162.6599
18250.000000	67.978	-175.7108
18500.000000	68.314	164.7460
18750.000000	67.258	146.2670
19000.000000	65.181	135.1176
19250.000000	62.740	131.3073
19500.000000	60.418	132.0620
19750.000000	58.473	134.7574
20000.000000	57.232	136.9713
