* Measurement data measured by REW V5.20.13
* Source: EXCL: Mic in at rear panel (Pink)(Realtek(R) Audio), MICROPHONE (마스), L, volume: 0.500
* Format: 256k Log Swept Sine, 1 sweep at -12.0 dBFS with no timing reference
* Dated: 2022. 10. 1 오전 10:59:06
* REW Settings:
*  C-weighting compensation: Off
*  Target level: 75.0 dB
* Note: 
* Measurement: R
* Smoothing: 1/24 octave
* Frequency Step: 1/48 octave
* Start Frequency: 20.300 Hz
*
* Freq(Hz)	SPL(dB)	Phase(degrees)
20.299999	70.618	-152.7284
20.600000	70.619	-152.6793
20.900000	70.630	-152.5800
21.200001	70.659	-152.4744
21.400000	70.686	-152.4453
21.799999	70.748	-152.5451
22.000000	70.776	-152.6840
22.400000	70.813	-153.0970
22.700001	70.822	-153.4542
23.000000	70.819	-153.7916
23.299999	70.810	-154.0869
23.600000	70.804	-154.3433
24.000000	70.808	-154.6565
24.299999	70.822	-154.9111
24.700001	70.856	-155.3368
25.000000	70.885	-155.7556
25.400000	70.917	-156.4557
25.799999	70.924	-157.2407
26.200001	70.899	-157.9431
26.500000	70.869	-158.3119
26.900000	70.837	-158.5481
27.200001	70.836	-158.5976
27.600000	70.877	-158.6733
28.000000	70.949	-158.9722
28.500000	71.024	-159.7342
29.000000	71.036	-160.6146
29.500000	71.001	-161.2199
30.000000	70.974	-161.4801
30.400000	70.977	-161.6217
30.700001	70.988	-161.7838
31.100000	70.994	-162.0880
31.500000	70.978	-162.3983
32.000000	70.936	-162.6007
32.500000	70.907	-162.5477
33.000000	70.920	-162.4516
33.500000	70.964	-162.5661
34.000000	70.999	-162.9525
34.500000	70.999	-163.4340
35.000000	70.970	-163.7871
35.500000	70.949	-163.9266
36.000000	70.965	-163.9926
36.500000	71.013	-164.2143
37.000000	71.061	-164.6886
37.500000	71.078	-165.2691
38.200001	71.068	-165.8646
38.700001	71.069	-166.1360
39.500000	71.065	-166.6210
40.000000	71.027	-166.7047
40.599998	71.004	-166.1907
41.200001	71.116	-165.4415
41.799999	71.329	-165.4735
42.500000	71.491	-166.8503
43.099998	71.449	-168.2318
43.700001	71.298	-168.9051
44.400002	71.128	-168.6293
45.000000	71.081	-167.9285
45.500000	71.122	-167.4982
46.200001	71.215	-167.5690
46.799999	71.243	-168.0087
47.500000	71.239	-168.3005
48.200001	71.275	-168.5466
48.700001	71.298	-168.9692
49.400002	71.254	-169.5703
50.000000	71.188	-169.6129
50.799999	71.172	-169.3239
51.500000	71.193	-169.3023
52.200001	71.206	-169.3683
53.000000	71.240	-169.5744
53.799999	71.252	-170.1638
54.500000	71.220	-170.6882
55.200001	71.189	-171.1081
56.000000	71.156	-171.6639
57.000000	71.086	-172.1406
58.000000	71.062	-172.1872
59.000000	71.092	-172.2307
60.000000	71.129	-172.3620
60.799999	71.142	-172.4903
61.500000	71.141	-172.5151
62.200001	71.145	-172.4663
63.000000	71.160	-172.4768
64.000000	71.170	-172.6656
65.000000	71.171	-172.9220
66.000000	71.172	-173.2851
67.000000	71.158	-173.6320
68.000000	71.158	-173.7894
69.000000	71.183	-173.9822
70.000000	71.197	-174.2420
71.000000	71.196	-174.4061
72.000000	71.200	-174.5328
73.000000	71.197	-174.8049
74.000000	71.149	-175.0857
75.000000	71.097	-174.9987
76.199997	71.118	-174.8963
77.500000	71.146	-175.2858
78.800003	71.137	-175.6284
80.000000	71.141	-175.8191
81.199997	71.144	-176.1116
82.500000	71.112	-176.3209
83.800003	71.093	-176.2839
85.000000	71.109	-176.2716
86.199997	71.140	-176.5018
87.500000	71.141	-176.9141
88.500000	71.127	-177.0650
90.000000	71.152	-177.0887
91.199997	71.193	-177.2755
92.500000	71.208	-177.5504
93.800003	71.194	-177.7339
95.000000	71.167	-177.8239
96.199997	71.132	-177.9001
97.500000	71.092	-177.9550
98.800003	71.068	-178.0045
100.000000	71.064	-178.0638
101.500000	71.084	-178.1865
103.000000	71.106	-178.4037
104.400002	71.116	-178.6197
106.000000	71.108	-178.8523
107.500000	71.096	-179.0099
109.000000	71.089	-179.0750
110.599998	71.097	-179.1351
112.000000	71.091	-179.2894
113.800003	71.046	-179.4908
115.000000	71.020	-179.6591
117.199997	70.989	179.6448
118.000000	70.976	179.3389
120.599998	70.945	179.0062
122.000000	70.981	179.1815
124.099998	71.030	179.3238
125.000000	71.031	179.3542
126.500000	71.020	179.3909
128.000000	71.014	179.3264
131.500000	70.999	178.7942
132.000000	70.995	178.7568
134.000000	70.985	178.7257
136.000000	70.982	178.6962
138.000000	70.970	178.4427
140.000000	70.928	178.0862
143.000000	70.886	177.8857
145.000000	70.893	177.7778
147.500000	70.894	177.5406
150.000000	70.874	177.3962
152.500000	70.854	177.1736
155.000000	70.825	176.9330
157.500000	70.804	176.7186
160.000000	70.795	176.5750
162.500000	70.786	176.3275
165.000000	70.748	176.0559
167.500000	70.724	175.7898
170.000000	70.700	175.4878
172.500000	70.664	175.3302
175.000000	70.625	175.2159
177.500000	70.592	174.9994
180.000000	70.569	174.6844
182.500000	70.538	174.3250
185.000000	70.469	173.9854
187.500000	70.382	173.6279
190.000000	70.314	173.1830
192.500000	70.272	172.7760
195.000000	70.217	172.5086
197.500000	70.092	172.3157
200.000000	69.882	172.1780
203.000000	69.554	172.3246
206.000000	69.198	173.5590
209.000000	68.929	176.1208
212.000000	68.913	179.2521
214.000000	69.066	-179.0394
218.000000	69.528	-177.2459
220.000000	69.740	-177.0880
224.000000	70.040	-177.7226
227.000000	70.161	-178.3188
230.000000	70.215	-178.7057
233.000000	70.245	-179.1385
236.000000	70.277	-179.8200
240.000000	70.287	179.5125
243.000000	70.284	179.2665
247.000000	70.272	178.7556
250.000000	70.251	178.4265
254.000000	70.230	178.0698
258.000000	70.218	177.7392
262.000000	70.182	177.7545
265.000000	70.142	177.7393
269.000000	70.115	177.5020
272.000000	70.114	177.3742
276.000000	70.086	177.2046
280.000000	70.026	177.0842
285.000000	69.989	177.0641
290.000000	69.967	176.9821
295.000000	69.936	176.8638
300.000000	69.902	176.6982
304.000000	69.863	176.6808
307.000000	69.838	176.6722
311.000000	69.816	176.6186
315.000000	69.800	176.6316
320.000000	69.759	176.7004
325.000000	69.714	176.6978
330.000000	69.684	176.6656
335.000000	69.665	176.7156
340.000000	69.635	176.7527
345.000000	69.588	176.7502
350.000000	69.538	176.7165
355.000000	69.487	176.8525
360.000000	69.437	176.9847
365.000000	69.393	177.0125
370.000000	69.354	177.0114
375.000000	69.313	177.0115
382.000000	69.255	177.0662
387.000000	69.211	177.1344
395.000000	69.121	177.4806
400.000000	69.067	177.6891
406.000000	69.009	177.8033
412.000000	68.947	177.9460
418.000000	68.888	178.1749
425.000000	68.838	178.4683
431.000000	68.809	178.7309
437.000000	68.777	179.0760
444.000000	68.730	179.3562
450.000000	68.697	179.4911
455.000000	68.674	179.6979
462.000000	68.629	-179.9593
468.000000	68.577	-179.6329
475.000000	68.516	-179.1861
482.000000	68.479	-178.8279
487.000000	68.472	-178.6526
494.000000	68.447	-178.4527
500.000000	68.402	-178.2770
508.000000	68.334	-177.9199
515.000000	68.275	-177.6077
522.000000	68.223	-177.3657
530.000000	68.177	-176.8874
538.000000	68.150	-176.3867
545.000000	68.135	-176.0829
552.000000	68.102	-175.7763
560.000000	68.055	-175.4347
570.000000	68.006	-174.9307
580.000000	67.959	-174.1589
590.000000	67.908	-173.4856
600.000000	67.857	-172.9258
608.000000	67.809	-172.6445
615.000000	67.778	-172.3124
622.000000	67.752	-171.8642
630.000000	67.719	-171.3483
640.000000	67.670	-170.7833
650.000000	67.629	-170.1006
660.000000	67.584	-169.3542
670.000000	67.554	-168.6110
680.000000	67.526	-167.8756
690.000000	67.484	-167.2553
700.000000	67.461	-166.6323
710.000000	67.445	-165.8217
720.000000	67.428	-165.0284
730.000000	67.405	-164.3179
740.000000	67.372	-163.6350
750.000000	67.351	-162.9829
762.000000	67.336	-162.1028
775.000000	67.316	-160.9639
788.000000	67.310	-159.9154
800.000000	67.312	-159.0450
812.000000	67.304	-158.1379
825.000000	67.299	-157.0860
838.000000	67.303	-156.0326
850.000000	67.318	-155.0658
862.000000	67.346	-154.1463
875.000000	67.373	-153.1304
885.000000	67.389	-152.3767
900.000000	67.427	-151.3299
912.000000	67.467	-150.4201
925.000000	67.507	-149.4112
938.000000	67.554	-148.4511
950.000000	67.614	-147.6393
962.000000	67.679	-146.8120
975.000000	67.745	-145.8403
988.000000	67.820	-144.8263
1000.000000	67.896	-144.0081
1015.000000	67.980	-143.2989
1030.000000	68.068	-142.6132
1044.000000	68.160	-141.9547
1060.000000	68.274	-141.1785
1075.000000	68.374	-140.4225
1090.000000	68.468	-139.6878
1106.000000	68.575	-138.9984
1120.000000	68.673	-138.4612
1138.000000	68.805	-137.8011
1150.000000	68.895	-137.3968
1172.000000	69.051	-136.7523
1180.000000	69.106	-136.5221
1206.000000	69.284	-135.7920
1220.000000	69.372	-135.4153
1241.000000	69.498	-134.7960
1250.000000	69.554	-134.5352
1265.000000	69.646	-134.1545
1280.000000	69.735	-133.8122
1315.000000	69.929	-132.9901
1320.000000	69.957	-132.8607
1340.000000	70.064	-132.3280
1360.000000	70.157	-131.8322
1380.000000	70.255	-131.3416
1400.000000	70.361	-130.7834
1430.000000	70.526	-129.9585
1450.000000	70.632	-129.4613
1475.000000	70.770	-128.7374
1500.000000	70.914	-127.9633
1525.000000	71.053	-127.2371
1550.000000	71.204	-126.5366
1575.000000	71.363	-125.8375
1600.000000	71.523	-125.1045
1625.000000	71.701	-124.4022
1650.000000	71.892	-123.7278
1675.000000	72.082	-123.1057
1700.000000	72.274	-122.5117
1725.000000	72.480	-121.9662
1750.000000	72.693	-121.4844
1775.000000	72.909	-121.0439
1800.000000	73.126	-120.6650
1825.000000	73.343	-120.4035
1850.000000	73.563	-120.2557
1875.000000	73.786	-120.1660
1900.000000	74.003	-120.1447
1925.000000	74.213	-120.1856
1950.000000	74.417	-120.2922
1975.000000	74.617	-120.4842
2000.000000	74.812	-120.7273
2030.000000	75.044	-121.0627
2060.000000	75.264	-121.4626
2090.000000	75.471	-121.9040
2120.000000	75.666	-122.3683
2140.000000	75.792	-122.6897
2180.000000	76.035	-123.3657
2200.000000	76.149	-123.7111
2240.000000	76.369	-124.4175
2270.000000	76.528	-124.9636
2300.000000	76.679	-125.5225
2330.000000	76.824	-126.0836
2360.000000	76.962	-126.6246
2400.000000	77.136	-127.3519
2430.000000	77.262	-127.8967
2470.000000	77.423	-128.5717
2500.000000	77.540	-129.0227
2540.000000	77.695	-129.5143
2580.000000	77.873	-129.8867
2620.000000	78.095	-130.2678
2650.000000	78.288	-130.7208
2690.000000	78.555	-131.7048
2720.000000	78.736	-132.7066
2760.000000	78.932	-134.2296
2800.000000	79.085	-135.7834
2850.000000	79.242	-137.6428
2900.000000	79.378	-139.4729
2950.000000	79.485	-141.3307
3000.000000	79.556	-143.1738
3040.000000	79.588	-144.5961
3070.000000	79.604	-145.6124
3110.000000	79.615	-146.9029
3150.000000	79.618	-148.1247
3200.000000	79.611	-149.5471
3250.000000	79.591	-150.8712
3300.000000	79.562	-152.1158
3350.000000	79.525	-153.2586
3400.000000	79.488	-154.3178
3450.000000	79.451	-155.2902
3500.000000	79.415	-156.1582
3550.000000	79.383	-156.9274
3600.000000	79.354	-157.6410
3650.000000	79.329	-158.3193
3700.000000	79.306	-158.9557
3750.000000	79.283	-159.5601
3820.000000	79.247	-160.3485
3870.000000	79.216	-160.8764
3950.000000	79.153	-161.6033
4000.000000	79.108	-161.9475
4060.000000	79.060	-162.2073
4120.000000	79.033	-162.3343
4180.000000	79.039	-162.4070
4250.000000	79.077	-162.5355
4310.000000	79.124	-162.7437
4370.000000	79.169	-163.0558
4440.000000	79.220	-163.5468
4500.000000	79.264	-164.0487
4550.000000	79.302	-164.5026
4620.000000	79.358	-165.1939
4680.000000	79.408	-165.8478
4750.000000	79.473	-166.7052
4820.000000	79.538	-167.7289
4870.000000	79.576	-168.5545
4940.000000	79.613	-169.8024
5000.000000	79.629	-170.9548
5080.000000	79.630	-172.6021
5150.000000	79.609	-174.0849
5220.000000	79.569	-175.5669
5300.000000	79.506	-177.2728
5380.000000	79.421	-178.9957
5450.000000	79.321	179.4899
5520.000000	79.198	177.9995
5600.000000	79.034	176.3851
5700.000000	78.794	174.5374
5800.000000	78.522	172.8964
5900.000000	78.229	171.5284
6000.000000	77.923	170.4532
6080.000000	77.678	169.7997
6150.000000	77.467	169.3720
6220.000000	77.261	169.0756
6300.000000	77.035	168.8741
6400.000000	76.772	168.7892
6500.000000	76.531	168.8953
6600.000000	76.318	169.1696
6700.000000	76.130	169.5686
6800.000000	75.982	170.0639
6900.000000	75.894	170.6616
7000.000000	75.872	171.3350
7100.000000	75.916	172.0215
7200.000000	76.025	172.6199
7300.000000	76.199	172.9857
7400.000000	76.436	172.9640
7500.000000	76.729	172.4242
7620.000000	77.140	170.9019
7750.000000	77.601	167.9387
7880.000000	77.932	163.4454
8000.000000	78.058	158.0154
8120.000000	77.958	151.7386
8250.000000	77.557	144.7261
8380.000000	76.865	138.3369
8500.000000	76.020	133.5553
8620.000000	75.042	130.0850
8750.000000	73.907	127.7844
8850.000000	73.023	126.9241
9000.000000	71.731	126.8157
9120.000000	70.748	127.5923
9250.000000	69.745	129.1369
9380.000000	68.819	131.2397
9500.000000	68.031	133.5849
9620.000000	67.305	136.2424
9750.000000	66.583	139.4047
9880.000000	65.924	142.7922
10000.000000	65.370	146.0668
10150.000000	64.752	150.3113
10300.000000	64.217	154.7522
10440.000000	63.776	158.9922
10600.000000	63.347	163.9356
10750.000000	63.023	168.5815
10900.000000	62.762	173.2706
11060.000000	62.547	178.3869
11200.000000	62.426	-177.1029
11380.000000	62.345	-171.4024
11500.000000	62.344	-167.6389
11720.000000	62.467	-160.6973
11800.000000	62.554	-158.1941
12060.000000	62.998	-150.3818
12200.000000	63.340	-146.3971
12410.000000	63.988	-140.8065
12500.000000	64.324	-138.5925
12650.000000	64.981	-135.2758
12800.000000	65.777	-132.6385
13150.000000	68.178	-130.8700
13200.000000	68.569	-131.3539
13400.000000	70.131	-135.9980
13600.000000	71.405	-145.8905
13800.000000	71.935	-160.3619
14000.000000	71.477	-175.2242
14300.000000	69.420	170.7247
14500.000000	67.785	167.6671
14750.000000	65.989	168.3392
15000.000000	64.630	171.7675
15250.000000	63.723	176.6337
15500.000000	63.309	-177.8507
15750.000000	63.419	-172.3022
16000.000000	64.078	-167.4687
16250.000000	65.378	-164.6498
16500.000000	67.307	-166.4543
16750.000000	69.310	-177.6706
17000.000000	70.187	159.1365
17250.000000	69.100	133.2691
17500.000000	66.342	117.6016
17750.000000	62.950	113.3971
18000.000000	59.850	115.5927
18250.000000	57.356	120.5952
18500.000000	55.386	127.0208
18750.000000	53.793	134.2264
19000.000000	52.465	141.8460
19250.000000	51.353	149.7129
19500.000000	50.363	157.5289
19750.000000	49.566	164.9524
20000.000000	49.085	170.2740
